"SubstrateStandardHolder - RawData"
"Wavelength nm.","T%"
190.00,42.78370
191.00,44.33297
192.00,46.37068
193.00,43.25818
194.00,45.26885
195.00,44.52110
196.00,43.73797
197.00,45.41665
198.00,42.74015
199.00,45.37695
200.00,45.73826
201.00,43.12829
202.00,45.01854
203.00,47.15326
204.00,46.67829
205.00,47.07593
206.00,48.77418
207.00,47.60770
208.00,48.49488
209.00,50.19075
210.00,49.56488
211.00,49.79086
212.00,50.37935
213.00,50.34355
214.00,50.96151
215.00,50.36448
216.00,50.78308
217.00,51.76092
218.00,51.91375
219.00,52.06868
220.00,51.67180
221.00,52.00741
222.00,51.30439
223.00,51.85392
224.00,52.98029
225.00,52.56198
226.00,52.35670
227.00,52.45784
228.00,52.75271
229.00,52.83684
230.00,53.29998
231.00,53.56911
232.00,53.65500
233.00,54.09872
234.00,54.30175
235.00,54.94595
236.00,55.00726
237.00,55.05376
238.00,55.09837
239.00,55.58913
240.00,56.29111
241.00,56.22318
242.00,56.85726
243.00,56.76360
244.00,56.57011
245.00,57.43573
246.00,57.03866
247.00,57.40221
248.00,57.55964
249.00,58.29833
250.00,58.12257
251.00,58.31462
252.00,58.03726
253.00,58.34435
254.00,58.36772
255.00,58.68319
256.00,58.90706
257.00,58.83347
258.00,58.68075
259.00,58.87937
260.00,58.96035
261.00,59.21370
262.00,58.75365
263.00,59.13830
264.00,59.05542
265.00,59.19219
266.00,59.02160
267.00,59.31571
268.00,59.42937
269.00,59.31590
270.00,59.63731
271.00,59.17500
272.00,59.39011
273.00,59.26539
274.00,59.44948
275.00,59.43431
276.00,59.55468
277.00,59.57835
278.00,59.63308
279.00,59.75562
280.00,59.43149
281.00,59.93364
282.00,59.87433
283.00,60.15866
284.00,59.76223
285.00,60.14349
286.00,60.29989
287.00,60.27955
288.00,60.53134
289.00,60.87025
290.00,60.32122
291.00,60.48577
292.00,60.75311
293.00,60.53477
294.00,61.03776
295.00,61.35738
296.00,61.16259
297.00,61.45048
298.00,61.00044
299.00,61.30271
300.00,61.19255
301.00,61.27079
302.00,61.47595
303.00,61.35755
304.00,61.53658
305.00,61.45387
306.00,61.59058
307.00,61.78959
308.00,61.89263
309.00,61.51128
310.00,61.97534
311.00,61.91195
312.00,61.84272
313.00,61.87195
314.00,62.01908
315.00,61.70981
316.00,62.02087
317.00,62.10455
318.00,62.53277
319.00,62.34112
320.00,62.29250
321.00,62.46924
322.00,61.95766
323.00,62.04556
324.00,62.65997
325.00,62.60439
326.00,62.35331
327.00,62.55206
328.00,62.55623
329.00,62.20796
330.00,62.31123
331.00,62.44923
332.00,62.57415
333.00,62.46519
334.00,62.96111
335.00,62.85690
336.00,62.50474
337.00,62.75646
338.00,62.95428
339.00,62.60685
340.00,63.33003
341.00,62.95645
342.00,62.88129
343.00,62.82204
344.00,63.25538
345.00,63.28243
346.00,62.86514
347.00,63.05271
348.00,63.04907
349.00,63.24059
350.00,63.04728
351.00,63.37364
352.00,63.08368
353.00,63.35933
354.00,63.34243
355.00,63.34452
356.00,63.15886
357.00,63.35551
358.00,63.22451
359.00,63.39158
360.00,63.33660
361.00,63.35144
362.00,63.29112
363.00,63.36222
364.00,63.39689
365.00,63.18755
366.00,63.43684
367.00,63.62786
368.00,63.49602
369.00,63.55089
370.00,63.67665
371.00,63.58240
372.00,63.57332
373.00,63.65896
374.00,63.66968
375.00,63.71433
376.00,63.33910
377.00,63.67465
378.00,63.33024
379.00,63.83666
380.00,63.82948
381.00,63.45496
382.00,63.55831
383.00,63.85356
384.00,63.79266
385.00,63.73304
386.00,63.83046
387.00,63.79486
388.00,63.84661
389.00,63.86675
390.00,64.04965
391.00,63.79594
392.00,63.76857
393.00,63.91085
394.00,63.96453
395.00,63.96312
396.00,64.00797
397.00,63.92544
398.00,64.26306
399.00,63.96229
400.00,64.17861
401.00,64.16825
402.00,63.95228
403.00,64.07540
404.00,64.16295
405.00,64.10167
406.00,64.13525
407.00,64.04560
408.00,64.26107
409.00,64.15566
410.00,64.27292
411.00,64.10100
412.00,64.29533
413.00,64.07585
414.00,64.41999
415.00,64.30948
416.00,64.14449
417.00,64.25776
418.00,64.20830
419.00,64.43823
420.00,64.20417
421.00,64.23887
422.00,64.37764
423.00,64.28970
424.00,64.45452
425.00,64.44650
426.00,64.41099
427.00,64.35224
428.00,64.45294
429.00,64.56277
430.00,64.39573
431.00,64.62035
432.00,64.53370
433.00,64.62265
434.00,64.51312
435.00,64.57934
436.00,64.57184
437.00,64.54806
438.00,64.63008
439.00,64.52767
440.00,64.51256
441.00,64.62841
442.00,64.56848
443.00,64.61155
444.00,64.81586
445.00,64.70109
446.00,64.69347
447.00,64.63555
448.00,64.71590
449.00,64.72489
450.00,64.63239
451.00,64.64816
452.00,64.72934
453.00,64.77058
454.00,64.71159
455.00,64.79726
456.00,64.75136
457.00,64.81302
458.00,64.85478
459.00,64.82250
460.00,64.75170
461.00,64.87103
462.00,64.81763
463.00,64.98463
464.00,64.81481
465.00,64.88993
466.00,64.96185
467.00,64.93914
468.00,64.99130
469.00,65.00347
470.00,64.91155
471.00,64.91758
472.00,64.97518
473.00,65.03400
474.00,65.01343
475.00,64.89984
476.00,65.01895
477.00,64.97796
478.00,64.97093
479.00,64.94386
480.00,65.04394
481.00,64.92767
482.00,65.10931
483.00,65.24990
484.00,65.18021
485.00,64.99981
486.00,65.19035
487.00,65.18958
488.00,65.12049
489.00,65.21050
490.00,65.12195
491.00,65.12297
492.00,65.20328
493.00,65.11900
494.00,65.26285
495.00,65.25917
496.00,65.31086
497.00,65.19786
498.00,65.29300
499.00,65.28715
500.00,65.24308
501.00,65.30288
502.00,65.38129
503.00,65.39217
504.00,65.31517
505.00,65.37907
506.00,65.42752
507.00,65.31153
508.00,65.32241
509.00,65.50685
510.00,65.32132
511.00,65.42159
512.00,65.45018
513.00,65.52271
514.00,65.43090
515.00,65.40425
516.00,65.43829
517.00,65.37666
518.00,65.51893
519.00,65.57400
520.00,65.55993
521.00,65.48288
522.00,65.65877
523.00,65.46986
524.00,65.48902
525.00,65.57915
526.00,65.63903
527.00,65.53841
528.00,65.61244
529.00,65.67224
530.00,65.56486
531.00,65.65404
532.00,65.71440
533.00,65.68624
534.00,65.75930
535.00,65.72143
536.00,65.67521
537.00,65.58583
538.00,65.69898
539.00,65.81685
540.00,65.81757
541.00,65.69116
542.00,65.76007
543.00,65.82525
544.00,65.76590
545.00,65.72435
546.00,65.79598
547.00,65.78490
548.00,65.73828
549.00,65.86477
550.00,65.94027
551.00,65.83403
552.00,65.80469
553.00,65.86478
554.00,65.93420
555.00,65.91818
556.00,65.98370
557.00,66.01064
558.00,66.00721
559.00,66.01614
560.00,66.03378
561.00,66.00552
562.00,66.02002
563.00,65.95050
564.00,65.98616
565.00,66.04145
566.00,66.06222
567.00,66.06801
568.00,66.11716
569.00,66.04906
570.00,66.04578
571.00,66.28301
572.00,66.13142
573.00,66.09414
574.00,66.17768
575.00,66.30186
576.00,66.11091
577.00,66.13001
578.00,66.23787
579.00,66.16124
580.00,66.18742
581.00,66.06518
582.00,66.29786
583.00,66.24157
584.00,66.22217
585.00,66.24965
586.00,66.40337
587.00,66.36050
588.00,66.24352
589.00,66.29373
590.00,66.31291
591.00,66.27626
592.00,66.31825
593.00,66.41045
594.00,66.33928
595.00,66.42038
596.00,66.33755
597.00,66.38342
598.00,66.36803
599.00,66.38725
600.00,66.39874
601.00,66.41304
602.00,66.54247
603.00,66.50573
604.00,66.48887
605.00,66.50497
606.00,66.56681
607.00,66.43694
608.00,66.64692
609.00,66.56913
610.00,66.37299
611.00,66.60011
612.00,66.54462
613.00,66.51228
614.00,66.54961
615.00,66.62524
616.00,66.63262
617.00,66.63679
618.00,66.72280
619.00,66.65897
620.00,66.71584
621.00,66.66082
622.00,66.78674
623.00,66.75299
624.00,66.70715
625.00,66.80307
626.00,66.74633
627.00,66.77673
628.00,66.73767
629.00,66.71570
630.00,66.83604
631.00,66.73515
632.00,66.80877
633.00,66.81045
634.00,66.79962
635.00,66.85115
636.00,66.86527
637.00,66.85339
638.00,66.78727
639.00,66.97661
640.00,67.00680
641.00,66.91986
642.00,66.98819
643.00,66.88631
644.00,66.90173
645.00,66.98756
646.00,66.98704
647.00,66.94117
648.00,67.10150
649.00,66.93704
650.00,66.99044
651.00,67.05998
652.00,66.95893
653.00,66.99162
654.00,67.07143
655.00,67.15057
656.00,67.10594
657.00,66.95380
658.00,67.22192
659.00,67.23111
660.00,67.09448
661.00,67.24207
662.00,67.20794
663.00,67.08066
664.00,67.27213
665.00,67.20749
666.00,67.38178
667.00,67.15693
668.00,67.25899
669.00,67.16839
670.00,67.23431
671.00,67.12824
672.00,67.18276
673.00,67.24626
674.00,67.31451
675.00,67.39391
676.00,67.38047
677.00,67.48519
678.00,67.31043
679.00,67.52987
680.00,67.23469
681.00,67.37504
682.00,67.48320
683.00,67.39609
684.00,67.36289
685.00,67.44553
686.00,67.41071
687.00,67.74910
688.00,67.38120
689.00,67.56259
690.00,67.45101
691.00,67.59640
692.00,67.32154
693.00,67.41768
694.00,67.56174
695.00,67.59483
696.00,67.45455
697.00,67.56542
698.00,67.67175
699.00,67.43767
700.00,67.45808
701.00,67.56803
702.00,67.56618
703.00,67.71457
704.00,67.84472
705.00,67.85305
706.00,67.74408
707.00,67.74750
708.00,67.83037
709.00,67.91660
710.00,67.84096
711.00,67.91825
712.00,67.64114
713.00,67.81006
714.00,67.62733
715.00,67.54408
716.00,67.99316
717.00,67.95244
718.00,67.66541
719.00,67.70030
720.00,67.66591
721.00,67.95387
722.00,67.88453
723.00,67.74859
724.00,67.63754
725.00,67.98047
726.00,68.03055
727.00,68.13526
728.00,68.14678
729.00,67.85820
730.00,68.16227
731.00,68.16732
732.00,67.86165
733.00,68.15479
734.00,68.21476
735.00,68.37240
736.00,68.13519
737.00,68.11092
738.00,68.04136
739.00,67.92192
740.00,68.14842
741.00,68.29753
742.00,68.03287
743.00,68.47832
744.00,68.06687
745.00,68.30711
746.00,68.38043
747.00,68.08116
748.00,68.39966
749.00,68.21828
750.00,68.02738
751.00,68.19877
752.00,68.36506
753.00,68.33856
754.00,68.13849
755.00,68.16557
756.00,68.39325
757.00,68.48133
758.00,68.50921
759.00,68.40096
760.00,68.12935
761.00,68.40607
762.00,68.34715
763.00,68.07452
764.00,68.77828
765.00,68.45132
766.00,68.31658
767.00,68.90647
768.00,68.28464
769.00,68.59681
770.00,68.26383
771.00,68.57188
772.00,68.33810
773.00,68.34505
774.00,68.62518
775.00,68.28104
776.00,68.73161
777.00,68.41790
778.00,68.79441
779.00,68.46779
780.00,68.36199
781.00,68.50075
782.00,68.69121
783.00,68.43247
784.00,68.64679
785.00,68.39438
786.00,68.65948
787.00,68.54866
788.00,69.05086
789.00,68.61676
790.00,68.88780
791.00,68.26249
792.00,68.47925
793.00,68.82569
794.00,68.05633
795.00,68.46477
796.00,68.56648
797.00,68.99987
798.00,68.22654
799.00,69.02138
800.00,68.97985
