"Sapphire - ThorLabs"
"Wavelength nm.","T%"
200,70.55
201,70.65
202,70.74
203,70.84
204,70.94
205,71.05
206,71.15
207,71.26
208,71.36
209,71.47
210,71.58
211,71.70
212,71.81
213,71.92
214,72.04
215,72.15
216,72.26
217,72.38
218,72.49
219,72.60
220,72.71
221,72.93
222,73.15
223,73.36
224,73.57
225,73.78
226,73.99
227,74.20
228,74.41
229,74.61
230,74.82
231,75.02
232,75.23
233,75.43
234,75.63
235,75.83
236,76.03
237,76.23
238,76.43
239,76.62
240,76.81
241,77.00
242,77.19
243,77.37
244,77.55
245,77.72
246,77.89
247,78.06
248,78.22
249,78.37
250,78.53
251,78.67
252,78.82
253,78.96
254,79.09
255,79.22
256,79.34
257,79.46
258,79.58
259,79.70
260,79.81
261,79.91
262,80.01
263,80.11
264,80.21
265,80.30
266,80.39
267,80.48
268,80.56
269,80.64
270,80.72
271,80.80
272,80.87
273,80.94
274,81.01
275,81.08
276,81.15
277,81.21
278,81.27
279,81.33
280,81.39
281,81.44
282,81.50
283,81.55
284,81.60
285,81.65
286,81.70
287,81.75
288,81.80
289,81.84
290,81.89
291,81.93
292,81.97
293,82.01
294,82.05
295,82.09
296,82.13
297,82.17
298,82.21
299,82.24
300,82.28
301,82.31
302,82.34
303,82.37
304,82.40
305,82.43
306,82.46
307,82.49
308,82.52
309,82.55
310,82.58
311,82.60
312,82.63
313,82.66
314,82.68
315,82.71
316,82.73
317,82.76
318,82.78
319,82.80
320,82.83
321,82.85
322,82.87
323,82.89
324,82.91
325,82.93
326,82.96
327,82.98
328,83.00
329,83.01
330,83.03
331,83.05
332,83.07
333,83.09
334,83.11
335,83.12
336,83.14
337,83.16
338,83.17
339,83.19
340,83.21
341,83.22
342,83.24
343,83.26
344,83.27
345,83.29
346,83.30
347,83.32
348,83.33
349,83.35
350,83.36
351,83.38
352,83.39
353,83.41
354,83.42
355,83.44
356,83.45
357,83.46
358,83.48
359,83.49
360,83.50
361,83.51
362,83.53
363,83.54
364,83.55
365,83.56
366,83.58
367,83.59
368,83.60
369,83.61
370,83.62
371,83.64
372,83.65
373,83.66
374,83.67
375,83.68
376,83.70
377,83.71
378,83.72
379,83.73
380,83.74
381,83.76
382,83.77
383,83.78
384,83.79
385,83.81
386,83.82
387,83.83
388,83.84
389,83.85
390,83.87
391,83.88
392,83.89
393,83.90
394,83.92
395,83.93
396,83.94
397,83.96
398,83.97
399,83.98
400,83.99
401,84.01
402,84.02
403,84.03
404,84.05
405,84.06
406,84.07
407,84.09
408,84.10
409,84.11
410,84.13
411,84.14
412,84.15
413,84.17
414,84.18
415,84.19
416,84.20
417,84.22
418,84.23
419,84.24
420,84.25
421,84.26
422,84.28
423,84.29
424,84.30
425,84.31
426,84.32
427,84.33
428,84.34
429,84.35
430,84.37
431,84.38
432,84.39
433,84.40
434,84.41
435,84.42
436,84.43
437,84.44
438,84.45
439,84.46
440,84.47
441,84.48
442,84.49
443,84.50
444,84.51
445,84.52
446,84.53
447,84.53
448,84.54
449,84.55
450,84.56
451,84.57
452,84.58
453,84.58
454,84.59
455,84.60
456,84.61
457,84.62
458,84.62
459,84.63
460,84.64
461,84.64
462,84.65
463,84.66
464,84.66
465,84.67
466,84.68
467,84.69
468,84.69
469,84.70
470,84.70
471,84.71
472,84.71
473,84.72
474,84.73
475,84.73
476,84.74
477,84.74
478,84.75
479,84.75
480,84.76
481,84.76
482,84.77
483,84.77
484,84.78
485,84.78
486,84.79
487,84.79
488,84.79
489,84.80
490,84.80
491,84.81
492,84.81
493,84.82
494,84.82
495,84.82
496,84.83
497,84.83
498,84.84
499,84.84
500,84.85
501,84.85
502,84.86
503,84.86
504,84.87
505,84.87
506,84.88
507,84.88
508,84.89
509,84.89
510,84.90
511,84.90
512,84.91
513,84.91
514,84.92
515,84.93
516,84.93
517,84.94
518,84.94
519,84.95
520,84.95
521,84.96
522,84.97
523,84.97
524,84.98
525,84.98
526,84.99
527,84.99
528,85.00
529,85.00
530,85.01
531,85.01
532,85.02
533,85.03
534,85.03
535,85.04
536,85.04
537,85.04
538,85.05
539,85.06
540,85.06
541,85.06
542,85.07
543,85.07
544,85.08
545,85.08
546,85.09
547,85.09
548,85.09
549,85.10
550,85.10
551,85.10
552,85.11
553,85.12
554,85.12
555,85.12
556,85.12
557,85.13
558,85.13
559,85.14
560,85.14
561,85.14
562,85.14
563,85.15
564,85.15
565,85.16
566,85.16
567,85.16
568,85.17
569,85.17
570,85.17
571,85.18
572,85.18
573,85.18
574,85.19
575,85.19
576,85.19
577,85.20
578,85.20
579,85.20
580,85.21
581,85.21
582,85.22
583,85.22
584,85.22
585,85.23
586,85.23
587,85.23
588,85.24
589,85.24
590,85.24
591,85.24
592,85.25
593,85.25
594,85.25
595,85.26
596,85.26
597,85.26
598,85.27
599,85.27
600,85.27
601,85.28
602,85.28
603,85.28
604,85.28
605,85.28
606,85.29
607,85.29
608,85.29
609,85.30
610,85.30
611,85.30
612,85.31
613,85.31
614,85.31
615,85.31
616,85.32
617,85.32
618,85.32
619,85.32
620,85.33
621,85.33
622,85.33
623,85.33
624,85.34
625,85.34
626,85.34
627,85.35
628,85.35
629,85.35
630,85.36
631,85.36
632,85.36
633,85.37
634,85.37
635,85.37
636,85.37
637,85.38
638,85.38
639,85.38
640,85.39
641,85.39
642,85.39
643,85.39
644,85.40
645,85.40
646,85.40
647,85.40
648,85.41
649,85.41
650,85.41
651,85.42
652,85.42
653,85.42
654,85.43
655,85.43
656,85.43
657,85.43
658,85.44
659,85.44
660,85.44
661,85.45
662,85.45
663,85.45
664,85.45
665,85.46
666,85.46
667,85.46
668,85.46
669,85.47
670,85.47
671,85.47
672,85.47
673,85.48
674,85.48
675,85.48
676,85.49
677,85.49
678,85.49
679,85.49
680,85.49
681,85.50
682,85.50
683,85.50
684,85.50
685,85.50
686,85.51
687,85.51
688,85.51
689,85.51
690,85.51
691,85.52
692,85.52
693,85.52
694,85.53
695,85.53
696,85.53
697,85.53
698,85.53
699,85.54
700,85.54
701,85.54
702,85.54
703,85.54
704,85.55
705,85.55
706,85.55
707,85.55
708,85.55
709,85.56
710,85.56
711,85.56
712,85.56
713,85.57
714,85.57
715,85.57
716,85.57
717,85.57
718,85.58
719,85.58
720,85.58
721,85.58
722,85.58
723,85.58
724,85.59
725,85.59
726,85.59
727,85.60
728,85.59
729,85.60
730,85.60
731,85.60
732,85.61
733,85.61
734,85.61
735,85.61
736,85.61
737,85.61
738,85.62
739,85.62
740,85.62
741,85.62
742,85.62
743,85.62
744,85.63
745,85.63
746,85.63
747,85.63
748,85.63
749,85.63
750,85.64
751,85.64
752,85.64
753,85.64
754,85.64
755,85.64
756,85.64
757,85.65
758,85.65
759,85.65
760,85.65
761,85.65
762,85.66
763,85.66
764,85.66
765,85.66
766,85.66
767,85.67
768,85.67
769,85.67
770,85.67
771,85.67
772,85.67
773,85.68
774,85.68
775,85.69
776,85.69
777,85.69
778,85.69
779,85.69
780,85.69
781,85.69
782,85.70
783,85.70
784,85.70
785,85.70
786,85.70
787,85.70
788,85.71
789,85.71
790,85.71
791,85.72
792,85.71
793,85.71
794,85.71
795,85.72
796,85.73
797,85.73
798,85.73
799,85.73
800,85.73
801,85.73
802,85.73
803,85.74
804,85.75
805,85.75
806,85.75
807,85.75
808,85.75
809,85.75
810,85.76
811,85.76
812,85.77
813,85.77
814,85.77
815,85.77
816,85.77
817,85.77
818,85.77
819,85.78
820,85.78
821,85.79
822,85.79
823,85.79
824,85.79
825,85.79
826,85.79
827,85.79
828,85.79
829,85.79
830,85.80
831,85.80
832,85.80
833,85.80
834,85.79
835,85.79
836,85.79
837,85.79
838,85.79
839,85.80
840,85.81
841,85.82
842,85.83
843,85.84
844,85.84
845,85.85
846,85.86
847,85.86
848,85.87
849,85.88
850,85.89
851,85.90
852,85.91
853,85.91
854,85.92
855,85.93
856,85.94
857,85.95
858,85.96
859,85.97
860,85.97
861,85.98
862,85.98
863,85.99
864,86.00
865,86.01
866,86.02
867,86.03
868,86.04
869,86.05
870,86.05
871,86.06
872,86.07
873,86.08
874,86.09
875,86.11
876,86.12
877,86.13
878,86.13
879,86.14
880,86.15
881,86.15
882,86.15
883,86.15
884,86.15
885,86.15
886,86.15
887,86.15
888,86.15
889,86.15
890,86.16
891,86.16
892,86.16
893,86.16
894,86.16
895,86.16
896,86.16
897,86.16
898,86.17
899,86.17
900,86.17
901,86.17
902,86.17
903,86.17
904,86.17
905,86.18
906,86.18
907,86.18
908,86.18
909,86.18
910,86.18
911,86.18
912,86.19
913,86.19
914,86.19
915,86.19
916,86.19
917,86.20
918,86.20
919,86.20
920,86.20
921,86.20
922,86.20
923,86.20
924,86.20
925,86.21
926,86.21
927,86.21
928,86.21
929,86.21
930,86.21
931,86.21
932,86.22
933,86.22
934,86.22
935,86.22
936,86.22
937,86.22
938,86.22
939,86.23
940,86.23
941,86.23
942,86.23
943,86.23
944,86.23
945,86.23
946,86.24
947,86.24
948,86.24
949,86.24
950,86.24
951,86.24
952,86.25
953,86.25
954,86.25
955,86.25
956,86.25
957,86.25
958,86.25
959,86.25
960,86.25
961,86.25
962,86.25
963,86.26
964,86.26
965,86.26
966,86.26
967,86.26
968,86.26
969,86.26
970,86.26
971,86.26
972,86.26
973,86.27
974,86.27
975,86.27
976,86.27
977,86.27
978,86.27
979,86.27
980,86.27
981,86.27
982,86.27
983,86.27
984,86.27
985,86.27
986,86.27
987,86.27
988,86.27
989,86.27
990,86.27
991,86.27
992,86.28
993,86.28
994,86.28
995,86.28
996,86.28
997,86.28
998,86.28
999,86.28
1000,86.28
1001,86.28
1002,86.28
1003,86.28
1004,86.28
1005,86.28
1006,86.28
1007,86.28
1008,86.28
1009,86.29
1010,86.29
1011,86.29
1012,86.29
1013,86.29
1014,86.29
1015,86.29
1016,86.29
1017,86.29
1018,86.29
1019,86.29
1020,86.29
1021,86.29
1022,86.29
1023,86.29
1024,86.29
1025,86.30
1026,86.30
1027,86.30
1028,86.30
1029,86.30
1030,86.30
1031,86.30
1032,86.30
1033,86.31
1034,86.31
1035,86.31
1036,86.31
1037,86.31
1038,86.31
1039,86.31
1040,86.32
1041,86.32
1042,86.32
1043,86.32
1044,86.32
1045,86.32
1046,86.33
1047,86.33
1048,86.33
1049,86.33
1050,86.33
1051,86.33
1052,86.33
1053,86.34
1054,86.34
1055,86.34
1056,86.34
1057,86.34
1058,86.34
1059,86.34
1060,86.34
1061,86.34
1062,86.34
1063,86.35
1064,86.35
1065,86.35
1066,86.35
1067,86.35
1068,86.35
1069,86.35
1070,86.35
1071,86.36
1072,86.36
1073,86.36
1074,86.36
1075,86.36
1076,86.36
1077,86.37
1078,86.37
1079,86.37
1080,86.37
1081,86.37
1082,86.37
1083,86.37
1084,86.38
1085,86.38
1086,86.38
1087,86.38
1088,86.38
1089,86.38
1090,86.39
1091,86.39
1092,86.39
1093,86.39
1094,86.39
1095,86.40
1096,86.40
1097,86.40
1098,86.40
1099,86.40
1100,86.40
1101,86.41
1102,86.41
1103,86.41
1104,86.41
1105,86.42
1106,86.42
1107,86.42
1108,86.42
1109,86.43
1110,86.43
1111,86.43
1112,86.43
1113,86.43
1114,86.43
1115,86.44
1116,86.44
1117,86.44
1118,86.44
1119,86.44
1120,86.45
1121,86.45
1122,86.45
1123,86.45
1124,86.45
1125,86.45
1126,86.46
1127,86.46
1128,86.46
1129,86.46
1130,86.46
1131,86.46
1132,86.47
1133,86.47
1134,86.47
1135,86.47
1136,86.47
1137,86.47
1138,86.48
1139,86.48
1140,86.48
1141,86.48
1142,86.49
1143,86.49
1144,86.49
1145,86.49
1146,86.49
1147,86.49
1148,86.49
1149,86.49
1150,86.49
1151,86.50
1152,86.50
1153,86.50
1154,86.50
1155,86.50
1156,86.50
1157,86.50
1158,86.50
1159,86.51
1160,86.51
1161,86.51
1162,86.51
1163,86.51
1164,86.52
1165,86.52
1166,86.52
1167,86.52
1168,86.52
1169,86.52
1170,86.52
1171,86.52
1172,86.53
1173,86.53
1174,86.53
1175,86.53
1176,86.53
1177,86.53
1178,86.54
1179,86.54
1180,86.54
1181,86.54
1182,86.54
1183,86.54
1184,86.54
1185,86.55
1186,86.55
1187,86.55
1188,86.55
1189,86.55
1190,86.56
1191,86.56
1192,86.56
1193,86.56
1194,86.56
1195,86.56
1196,86.57
1197,86.57
1198,86.57
1199,86.57
1200,86.57
1201,86.57
1202,86.57
1203,86.57
1204,86.57
1205,86.58
1206,86.58
1207,86.58
1208,86.58
1209,86.58
1210,86.58
1211,86.58
1212,86.58
1213,86.58
1214,86.59
1215,86.59
1216,86.59
1217,86.59
1218,86.59
1219,86.59
1220,86.59
1221,86.59
1222,86.59
1223,86.60
1224,86.60
1225,86.60
1226,86.60
1227,86.60
1228,86.60
1229,86.60
1230,86.60
1231,86.60
1232,86.60
1233,86.60
1234,86.60
1235,86.60
1236,86.60
1237,86.60
1238,86.61
1239,86.61
1240,86.61
1241,86.61
1242,86.61
1243,86.61
1244,86.61
1245,86.61
1246,86.61
1247,86.61
1248,86.61
1249,86.61
1250,86.61
1251,86.61
1252,86.61
1253,86.61
1254,86.62
1255,86.62
1256,86.62
1257,86.62
1258,86.62
1259,86.62
1260,86.62
1261,86.62
1262,86.62
1263,86.62
1264,86.62
1265,86.62
1266,86.63
1267,86.63
1268,86.63
1269,86.63
1270,86.63
1271,86.63
1272,86.63
1273,86.63
1274,86.63
1275,86.63
1276,86.63
1277,86.64
1278,86.64
1279,86.64
1280,86.64
1281,86.64
1282,86.64
1283,86.64
1284,86.64
1285,86.64
1286,86.64
1287,86.64
1288,86.64
1289,86.64
1290,86.64
1291,86.64
1292,86.64
1293,86.65
1294,86.65
1295,86.65
1296,86.65
1297,86.65
1298,86.65
1299,86.65
1300,86.65
1301,86.65
1302,86.65
1303,86.65
1304,86.65
1305,86.65
1306,86.65
1307,86.65
1308,86.65
1309,86.65
1310,86.65
1311,86.65
1312,86.65
1313,86.65
1314,86.65
1315,86.65
1316,86.65
1317,86.65
1318,86.65
1319,86.65
1320,86.65
1321,86.65
1322,86.65
1323,86.65
1324,86.65
1325,86.65
1326,86.65
1327,86.65
1328,86.65
1329,86.65
1330,86.65
1331,86.65
1332,86.65
1333,86.65
1334,86.65
1335,86.65
1336,86.65
1337,86.65
1338,86.65
1339,86.65
1340,86.65
1341,86.65
1342,86.65
1343,86.65
1344,86.65
1345,86.65
1346,86.65
1347,86.66
1348,86.66
1349,86.66
1350,86.66
1351,86.66
1352,86.66
1353,86.66
1354,86.66
1355,86.66
1356,86.66
1357,86.66
1358,86.66
1359,86.66
1360,86.66
1361,86.66
1362,86.66
1363,86.66
1364,86.66
1365,86.66
1366,86.66
1367,86.67
1368,86.67
1369,86.67
1370,86.67
1371,86.67
1372,86.67
1373,86.67
1374,86.67
1375,86.67
1376,86.67
1377,86.67
1378,86.67
1379,86.67
1380,86.68
1381,86.68
1382,86.68
1383,86.68
1384,86.68
1385,86.68
1386,86.68
1387,86.68
1388,86.68
1389,86.68
1390,86.68
1391,86.69
1392,86.69
1393,86.69
1394,86.69
1395,86.69
1396,86.68
1397,86.68
1398,86.68
1399,86.68
1400,86.68
1401,86.68
1402,86.68
1403,86.68
1404,86.68
1405,86.68
1406,86.68
1407,86.68
1408,86.68
1409,86.68
1410,86.68
1411,86.68
1412,86.68
1413,86.68
1414,86.68
1415,86.68
1416,86.68
1417,86.68
1418,86.68
1419,86.68
1420,86.68
1421,86.68
1422,86.68
1423,86.68
1424,86.68
1425,86.68
1426,86.68
1427,86.68
1428,86.68
1429,86.67
1430,86.67
1431,86.67
1432,86.67
1433,86.67
1434,86.67
1435,86.67
1436,86.67
1437,86.68
1438,86.68
1439,86.68
1440,86.68
1441,86.68
1442,86.68
1443,86.68
1444,86.68
1445,86.68
1446,86.69
1447,86.68
1448,86.68
1449,86.68
1450,86.68
1451,86.68
1452,86.68
1453,86.68
1454,86.68
1455,86.68
1456,86.68
1457,86.68
1458,86.68
1459,86.68
1460,86.68
1461,86.69
1462,86.69
1463,86.69
1464,86.69
1465,86.69
1466,86.69
1467,86.69
1468,86.69
1469,86.70
1470,86.70
1471,86.70
1472,86.70
1473,86.70
1474,86.70
1475,86.70
1476,86.70
1477,86.69
1478,86.69
1479,86.69
1480,86.69
1481,86.69
1482,86.69
1483,86.69
1484,86.69
1485,86.69
1486,86.69
1487,86.69
1488,86.69
1489,86.69
1490,86.69
1491,86.69
1492,86.70
1493,86.70
1494,86.70
1495,86.70
1496,86.70
1497,86.71
1498,86.71
1499,86.71
1500,86.71
1501,86.70
1502,86.70
1503,86.70
1504,86.70
1505,86.70
1506,86.70
1507,86.70
1508,86.70
1509,86.70
1510,86.70
1511,86.70
1512,86.70
1513,86.70
1514,86.70
1515,86.70
1516,86.70
1517,86.70
1518,86.70
1519,86.70
1520,86.70
1521,86.71
1522,86.71
1523,86.71
1524,86.71
1525,86.72
1526,86.72
1527,86.72
1528,86.72
1529,86.72
1530,86.72
1531,86.72
1532,86.72
1533,86.72
1534,86.71
1535,86.71
1536,86.71
1537,86.71
1538,86.71
1539,86.71
1540,86.71
1541,86.71
1542,86.71
1543,86.71
1544,86.72
1545,86.72
1546,86.72
1547,86.72
1548,86.72
1549,86.72
1550,86.72
1551,86.73
1552,86.73
1553,86.73
1554,86.73
1555,86.73
1556,86.73
1557,86.74
1558,86.74
1559,86.74
1560,86.74
1561,86.74
1562,86.73
1563,86.73
1564,86.73
1565,86.73
1566,86.73
1567,86.73
1568,86.73
1569,86.73
1570,86.73
1571,86.73
1572,86.73
1573,86.73
1574,86.73
1575,86.73
1576,86.73
1577,86.73
1578,86.74
1579,86.74
1580,86.74
1581,86.74
1582,86.74
1583,86.74
1584,86.75
1585,86.75
1586,86.75
1587,86.75
1588,86.75
1589,86.75
1590,86.75
1591,86.75
1592,86.75
1593,86.75
1594,86.75
1595,86.75
1596,86.75
1597,86.74
1598,86.74
1599,86.74
1600,86.74
1601,86.74
1602,86.74
1603,86.74
1604,86.74
1605,86.74
1606,86.75
1607,86.75
1608,86.75
1609,86.75
1610,86.75
1611,86.76
1612,86.76
1613,86.76
1614,86.76
1615,86.76
1616,86.76
1617,86.77
1618,86.77
1619,86.77
1620,86.77
1621,86.77
1622,86.77
1623,86.76
1624,86.76
1625,86.76
1626,86.76
1627,86.76
1628,86.76
1629,86.76
1630,86.76
1631,86.76
1632,86.76
1633,86.76
1634,86.76
1635,86.76
1636,86.76
1637,86.76
1638,86.76
1639,86.76
1640,86.77
1641,86.77
1642,86.77
1643,86.77
1644,86.77
1645,86.78
1646,86.78
1647,86.78
1648,86.78
1649,86.79
1650,86.79
1651,86.79
1652,86.79
1653,86.79
1654,86.79
1655,86.79
1656,86.79
1657,86.79
1658,86.79
1659,86.79
1660,86.79
1661,86.79
1662,86.79
1663,86.79
1664,86.79
1665,86.79
1666,86.79
1667,86.79
1668,86.79
1669,86.79
1670,86.79
1671,86.79
1672,86.79
1673,86.80
1674,86.80
1675,86.80
1676,86.80
1677,86.80
1678,86.81
1679,86.81
1680,86.81
1681,86.81
1682,86.82
1683,86.82
1684,86.82
1685,86.82
1686,86.82
1687,86.82
1688,86.82
1689,86.82
1690,86.82
1691,86.82
1692,86.82
1693,86.82
1694,86.82
1695,86.81
1696,86.81
1697,86.81
1698,86.81
1699,86.81
1700,86.81
1701,86.82
1702,86.82
1703,86.82
1704,86.82
1705,86.82
1706,86.82
1707,86.82
1708,86.82
1709,86.82
1710,86.82
1711,86.83
1712,86.83
1713,86.83
1714,86.83
1715,86.84
1716,86.84
1717,86.84
1718,86.84
1719,86.84
1720,86.84
1721,86.84
1722,86.84
1723,86.84
1724,86.84
1725,86.84
1726,86.84
1727,86.84
1728,86.84
1729,86.84
1730,86.84
1731,86.84
1732,86.84
1733,86.85
1734,86.85
1735,86.85
1736,86.85
1737,86.85
1738,86.85
1739,86.85
1740,86.85
1741,86.85
1742,86.85
1743,86.85
1744,86.86
1745,86.86
1746,86.86
1747,86.86
1748,86.86
1749,86.86
1750,86.87
1751,86.87
1752,86.87
1753,86.87
1754,86.87
1755,86.87
1756,86.87
1757,86.87
1758,86.87
1759,86.87
1760,86.88
1761,86.88
1762,86.88
1763,86.88
1764,86.88
1765,86.89
1766,86.89
1767,86.89
1768,86.89
1769,86.89
1770,86.89
1771,86.89
1772,86.89
1773,86.90
1774,86.90
1775,86.90
1776,86.90
1777,86.90
1778,86.90
1779,86.90
1780,86.90
1781,86.90
1782,86.90
1783,86.91
1784,86.91
1785,86.91
1786,86.91
1787,86.91
1788,86.91
1789,86.92
1790,86.92
1791,86.92
1792,86.92
1793,86.92
1794,86.92
1795,86.93
1796,86.93
1797,86.93
1798,86.93
1799,86.93
1800,86.93
1801,86.93
1802,86.93
1803,86.93
1804,86.93
1805,86.93
1806,86.93
1807,86.93
1808,86.93
1809,86.93
1810,86.93
1811,86.93
1812,86.93
1813,86.93
1814,86.93
1815,86.93
1816,86.93
1817,86.93
1818,86.93
1819,86.93
1820,86.93
1821,86.94
1822,86.94
1823,86.94
1824,86.94
1825,86.94
1826,86.94
1827,86.94
1828,86.94
1829,86.94
1830,86.95
1831,86.95
1832,86.95
1833,86.95
1834,86.95
1835,86.95
1836,86.95
1837,86.95
1838,86.95
1839,86.96
1840,86.96
1841,86.96
1842,86.96
1843,86.96
1844,86.96
1845,86.96
1846,86.97
1847,86.97
1848,86.97
1849,86.97
1850,86.97
1851,86.97
1852,86.97
1853,86.97
1854,86.98
1855,86.98
1856,86.98
1857,86.98
1858,86.98
1859,86.99
1860,86.99
1861,86.99
1862,86.98
1863,86.98
1864,86.98
1865,86.98
1866,86.98
1867,86.98
1868,86.99
1869,86.98
1870,86.98
1871,86.98
1872,86.98
1873,86.99
1874,86.99
1875,86.99
1876,86.99
1877,86.99
1878,86.99
1879,86.99
1880,86.99
1881,86.99
1882,86.99
1883,86.99
1884,86.99
1885,86.99
1886,87.00
1887,87.00
1888,87.00
1889,87.00
1890,87.00
1891,87.01
1892,87.01
1893,87.01
1894,87.01
1895,87.01
1896,87.02
1897,87.02
1898,87.02
1899,87.02
1900,87.02
1901,87.02
1902,87.02
1903,87.02
1904,87.02
1905,87.02
1906,87.02
1907,87.02
1908,87.02
1909,87.03
1910,87.03
1911,87.03
1912,87.03
1913,87.03
1914,87.03
1915,87.03
1916,87.03
1917,87.03
1918,87.03
1919,87.03
1920,87.03
1921,87.03
1922,87.04
1923,87.04
1924,87.04
1925,87.04
1926,87.04
1927,87.04
1928,87.04
1929,87.04
1930,87.05
1931,87.05
1932,87.05
1933,87.05
1934,87.06
1935,87.06
1936,87.06
1937,87.06
1938,87.06
1939,87.07
1940,87.07
1941,87.07
1942,87.07
1943,87.07
1944,87.07
1945,87.08
1946,87.08
1947,87.08
1948,87.08
1949,87.08
1950,87.08
1951,87.09
1952,87.09
1953,87.09
1954,87.09
1955,87.09
1956,87.09
1957,87.09
1958,87.09
1959,87.09
1960,87.10
1961,87.10
1962,87.10
1963,87.10
1964,87.10
1965,87.10
1966,87.10
1967,87.11
1968,87.11
1969,87.11
1970,87.11
1971,87.11
1972,87.11
1973,87.12
1974,87.12
1975,87.12
1976,87.12
1977,87.13
1978,87.13
1979,87.13
1980,87.14
1981,87.14
1982,87.14
1983,87.15
1984,87.15
1985,87.15
1986,87.15
1987,87.16
1988,87.16
1989,87.16
1990,87.16
1991,87.17
1992,87.17
1993,87.17
1994,87.17
1995,87.17
1996,87.18
1997,87.18
1998,87.18
1999,87.18
2000,87.18
2001,87.18
2002,87.18
2003,87.18
2004,87.18
2005,87.18
2006,87.18
2007,87.18
2008,87.17
2009,87.17
2010,87.17
2011,87.17
2012,87.17
2013,87.17
2014,87.17
2015,87.17
2016,87.17
2017,87.17
2018,87.17
2019,87.17
2020,87.17
2021,87.17
2022,87.17
2023,87.17
2024,87.17
2025,87.18
2026,87.18
2027,87.18
2028,87.18
2029,87.19
2030,87.19
2031,87.19
2032,87.19
2033,87.20
2034,87.20
2035,87.20
2036,87.21
2037,87.21
2038,87.21
2039,87.21
2040,87.22
2041,87.22
2042,87.22
2043,87.22
2044,87.22
2045,87.22
2046,87.22
2047,87.23
2048,87.22
2049,87.22
2050,87.22
2051,87.22
2052,87.22
2053,87.22
2054,87.22
2055,87.22
2056,87.22
2057,87.22
2058,87.22
2059,87.22
2060,87.21
2061,87.21
2062,87.21
2063,87.21
2064,87.21
2065,87.21
2066,87.21
2067,87.21
2068,87.20
2069,87.20
2070,87.20
2071,87.20
2072,87.20
2073,87.20
2074,87.20
2075,87.20
2076,87.20
2077,87.20
2078,87.20
2079,87.20
2080,87.20
2081,87.20
2082,87.20
2083,87.20
2084,87.20
2085,87.21
2086,87.21
2087,87.21
2088,87.21
2089,87.21
2090,87.21
2091,87.21
2092,87.21
2093,87.21
2094,87.21
2095,87.22
2096,87.22
2097,87.22
2098,87.22
2099,87.22
2100,87.22
2101,87.22
2102,87.21
2103,87.21
2104,87.21
2105,87.21
2106,87.21
2107,87.21
2108,87.21
2109,87.21
2110,87.21
2111,87.21
2112,87.21
2113,87.21
2114,87.20
2115,87.20
2116,87.20
2117,87.20
2118,87.20
2119,87.20
2120,87.20
2121,87.20
2122,87.20
2123,87.20
2124,87.20
2125,87.21
2126,87.21
2127,87.21
2128,87.21
2129,87.21
2130,87.21
2131,87.21
2132,87.22
2133,87.22
2134,87.22
2135,87.22
2136,87.22
2137,87.23
2138,87.23
2139,87.23
2140,87.24
2141,87.24
2142,87.24
2143,87.24
2144,87.25
2145,87.25
2146,87.25
2147,87.25
2148,87.25
2149,87.25
2150,87.26
2151,87.26
2152,87.26
2153,87.26
2154,87.26
2155,87.26
2156,87.26
2157,87.25
2158,87.25
2159,87.25
2160,87.25
2161,87.25
2162,87.24
2163,87.24
2164,87.24
2165,87.23
2166,87.23
2167,87.23
2168,87.22
2169,87.22
2170,87.22
2171,87.22
2172,87.21
2173,87.21
2174,87.21
2175,87.21
2176,87.20
2177,87.20
2178,87.20
2179,87.20
2180,87.19
2181,87.19
2182,87.19
2183,87.19
2184,87.19
2185,87.19
2186,87.19
2187,87.19
2188,87.19
2189,87.19
2190,87.19
2191,87.19
2192,87.19
2193,87.19
2194,87.19
2195,87.19
2196,87.20
2197,87.20
2198,87.20
2199,87.20
2200,87.20
2201,87.21
2202,87.21
2203,87.21
2204,87.21
2205,87.22
2206,87.22
2207,87.22
2208,87.22
2209,87.22
2210,87.23
2211,87.23
2212,87.23
2213,87.23
2214,87.23
2215,87.23
2216,87.23
2217,87.23
2218,87.23
2219,87.23
2220,87.23
2221,87.23
2222,87.23
2223,87.22
2224,87.22
2225,87.22
2226,87.22
2227,87.22
2228,87.22
2229,87.21
2230,87.21
2231,87.21
2232,87.21
2233,87.21
2234,87.21
2235,87.20
2236,87.20
2237,87.20
2238,87.20
2239,87.20
2240,87.20
2241,87.20
2242,87.20
2243,87.19
2244,87.19
2245,87.19
2246,87.19
2247,87.19
2248,87.20
2249,87.20
2250,87.20
2251,87.20
2252,87.20
2253,87.20
2254,87.20
2255,87.20
2256,87.21
2257,87.21
2258,87.21
2259,87.21
2260,87.22
2261,87.22
2262,87.22
2263,87.22
2264,87.23
2265,87.23
2266,87.23
2267,87.23
2268,87.23
2269,87.23
2270,87.23
2271,87.23
2272,87.23
2273,87.24
2274,87.24
2275,87.24
2276,87.24
2277,87.24
2278,87.24
2279,87.23
2280,87.23
2281,87.23
2282,87.23
2283,87.23
2284,87.23
2285,87.23
2286,87.23
2287,87.23
2288,87.22
2289,87.22
2290,87.22
2291,87.22
2292,87.22
2293,87.22
2294,87.22
2295,87.22
2296,87.22
2297,87.21
2298,87.21
2299,87.21
2300,87.21
2301,87.21
2302,87.21
2303,87.21
2304,87.22
2305,87.22
2306,87.22
2307,87.22
2308,87.22
2309,87.23
2310,87.23
2311,87.23
2312,87.23
2313,87.24
2314,87.24
2315,87.24
2316,87.25
2317,87.25
2318,87.26
2319,87.26
2320,87.27
2321,87.27
2322,87.27
2323,87.28
2324,87.28
2325,87.29
2326,87.29
2327,87.29
2328,87.29
2329,87.30
2330,87.30
2331,87.30
2332,87.30
2333,87.31
2334,87.31
2335,87.31
2336,87.31
2337,87.31
2338,87.31
2339,87.31
2340,87.31
2341,87.31
2342,87.31
2343,87.31
2344,87.31
2345,87.31
2346,87.30
2347,87.30
2348,87.30
2349,87.30
2350,87.29
2351,87.29
2352,87.29
2353,87.29
2354,87.29
2355,87.28
2356,87.28
2357,87.28
2358,87.27
2359,87.27
2360,87.27
2361,87.26
2362,87.26
2363,87.26
2364,87.25
2365,87.25
2366,87.25
2367,87.25
2368,87.25
2369,87.24
2370,87.24
2371,87.24
2372,87.24
2373,87.24
2374,87.24
2375,87.24
2376,87.24
2377,87.24
2378,87.24
2379,87.25
2380,87.25
2381,87.25
2382,87.25
2383,87.26
2384,87.26
2385,87.26
2386,87.27
2387,87.27
2388,87.27
2389,87.28
2390,87.28
2391,87.28
2392,87.28
2393,87.29
2394,87.29
2395,87.29
2396,87.29
2397,87.30
2398,87.30
2399,87.30
2400,87.30
2401,87.31
2402,87.31
2403,87.31
2404,87.31
2405,87.31
2406,87.32
2407,87.32
2408,87.32
2409,87.32
2410,87.32
2411,87.32
2412,87.32
2413,87.32
2414,87.32
2415,87.32
2416,87.32
2417,87.32
2418,87.32
2419,87.32
2420,87.31
2421,87.31
2422,87.31
2423,87.31
2424,87.31
2425,87.31
2426,87.31
2427,87.31
2428,87.31
2429,87.30
2430,87.30
2431,87.30
2432,87.30
2433,87.30
2434,87.30
2435,87.30
2436,87.30
2437,87.30
2438,87.30
2439,87.30
2440,87.30
2441,87.31
2442,87.31
2443,87.31
2444,87.31
2445,87.31
2446,87.32
2447,87.32
2448,87.32
2449,87.32
2450,87.33
2451,87.33
2452,87.34
2453,87.34
2454,87.34
2455,87.34
2456,87.35
2457,87.35
2458,87.35
2459,87.36
2460,87.36
2461,87.36
2462,87.37
2463,87.37
2464,87.37
2465,87.38
2466,87.38
2467,87.38
2468,87.39
2469,87.39
2470,87.39
2471,87.39
2472,87.39
2473,87.40
2474,87.40
2475,87.40
2476,87.40
2477,87.40
2478,87.40
2479,87.40
2480,87.40
2481,87.40
2482,87.40
2483,87.40
2484,87.40
2485,87.40
2486,87.40
2487,87.39
2488,87.39
2489,87.39
2490,87.39
2491,87.39
2492,87.39
2493,87.38
2494,87.38
2495,87.38
2496,87.38
2497,87.38
2498,87.38
2499,87.38
2500,87.38
2501,87.38
2502,87.38
2503,87.38
2504,87.38
2505,87.38
2506,87.38
2507,87.38
2508,87.38
2509,87.38
2510,87.38
2511,87.38
2512,87.38
2513,87.39
2514,87.39
2515,87.39
2516,87.40
2517,87.40
2518,87.40
2519,87.41
2520,87.41
2521,87.42
2522,87.42
2523,87.43
2524,87.43
2525,87.44
2526,87.44
2527,87.45
2528,87.46
2529,87.46
2530,87.47
2531,87.48
2532,87.49
2533,87.49
2534,87.50
2535,87.51
2536,87.51
2537,87.52
2538,87.52
2539,87.53
2540,87.54
2541,87.54
2542,87.55
2543,87.56
2544,87.56
2545,87.57
2546,87.57
2547,87.58
2548,87.58
2549,87.59
2550,87.60
2551,87.60
2552,87.60
2553,87.61
2554,87.61
2555,87.61
2556,87.62
2557,87.62
2558,87.62
2559,87.63
2560,87.63
2561,87.63
2562,87.63
2563,87.63
2564,87.64
2565,87.64
2566,87.64
2567,87.64
2568,87.64
2569,87.64
2570,87.65
2571,87.65
2572,87.65
2573,87.65
2574,87.65
2575,87.65
2576,87.65
2577,87.65
2578,87.65
2579,87.65
2580,87.65
2581,87.65
2582,87.66
2583,87.67
2584,87.67
2585,87.67
2586,87.68
2587,87.68
2588,87.68
2589,87.69
2590,87.69
2591,87.70
2592,87.70
2593,87.70
2594,87.70
2595,87.69
2596,87.68
2597,87.67
2598,87.67
2599,87.66
2600,87.65
2609.51511,87.65
2619.45291,87.65
2629.38657,87.65
2639.59184,87.65
2649.51707,87.63
2659.43811,87.63
2669.35495,87.62
2679.54287,87.61
2689.45115,87.60
2699.35518,87.59
2709.52988,87.59
2719.42525,87.59
2729.31632,87.59
2739.47766,87.57
2749.35998,87.56
2759.23796,87.55
2769.38579,87.54
2779.25492,87.53
2789.39361,87.52
2799.25382,87.50
2809.38332,87.49
2819.23455,87.48
2829.35479,87.47
2839.19698,87.46
2849.30789,87.46
2859.41405,87.46
2869.24249,87.44
2879.33922,87.43
2889.15845,87.43
2899.24569,87.41
2909.32809,87.41
2919.13334,87.41
2929.20615,87.40
2939.27407,87.40
2949.33709,87.40
2959.12342,87.41
2969.17672,87.43
2979.22507,87.41
2989.26844,87.42
2999.03559,87.42
3009.06911,87.42
3019.09762,87.42
3029.12108,87.42
3039.1395,87.42
3049.15284,87.42
3059.1611,87.42
3069.16426,87.42
3079.16229,87.42
3089.15519,87.42
3099.14294,87.42
3109.12551,87.42
3119.10291,87.43
3129.07509,87.42
3139.04206,87.42
3149.00379,87.43
3158.96027,87.44
3168.91148,87.44
3179.12614,87.45
3189.06662,87.45
3199.00178,87.47
3208.9316,87.48
3218.85607,87.49
3229.04318,87.49
3238.95674,87.49
3248.86491,87.48
3259.03522,87.48
3268.93238,87.47
3278.82409,87.47
3288.97745,87.47
3298.85806,87.47
3308.99998,87.47
3318.86942,87.45
3328.99983,87.45
3338.85802,87.46
3348.97686,87.45
3358.82375,87.43
3368.93094,87.41
3378.76645,87.41
3388.86193,87.43
3398.95144,87.43
3408.76969,87.42
3418.84738,87.42
3428.91905,87.41
3438.71989,87.40
3448.77964,87.38
3458.83332,87.39
3468.88091,87.39
3478.65824,87.38
3488.69377,87.36
3498.72316,87.35
3508.7464,87.34
3518.76347,87.35
3528.77434,87.34
3538.77901,87.33
3548.77745,87.31
3558.76964,87.28
3568.75558,87.27
3578.73523,87.27
3588.70859,87.23
3598.67563,87.23
3608.63634,87.19
3618.59071,87.16
3628.5387,87.12
3638.74185,87.08
3648.67689,87.05
3658.60551,87.02
3668.5277,86.97
3678.70428,86.95
3688.61337,86.91
3698.51596,86.88
3708.67239,86.81
3718.56178,86.77
3728.44463,86.73
3738.58073,86.68
3748.45027,86.62
3758.57268,86.58
3768.42883,86.53
3778.53747,86.47
3788.38017,86.42
3798.47496,86.36
3808.56271,86.30
3818.38502,86.24
3828.45881,86.17
3838.52552,86.11
3848.5851,86.05
3858.37989,85.99
3868.42538,85.90
3878.4637,85.82
3888.49483,85.75
3898.51876,85.70
3908.53545,85.61
3918.28835,85.52
3928.29073,85.40
3938.28583,85.27
3948.27363,85.17
3958.25411,85.07
3968.48288,84.97
3978.44849,84.85
3988.40672,84.72
3998.35756,84.60
4008.30099,84.48
4018.23699,84.38
4028.42002,84.25
4038.34092,84.18
4048.25433,84.07
4058.16024,83.96
4068.31234,83.83
4078.203,83.70
4088.33941,83.55
4098.21473,83.40
4108.33539,83.27
4118.19531,83.12
4128.30012,82.94
4138.14457,82.79
4148.23346,82.63
4158.31428,82.46
4168.13526,82.25
4178.20004,82.06
4188.25668,81.86
4198.05404,81.65
4208.09453,81.42
4218.12682,81.21
4228.15088,80.97
4238.1667,80.72
4248.17426,80.46
4258.17354,80.21
4268.16451,79.93
4278.14716,79.67
4288.12148,79.39
4298.08743,79.09
4308.045,78.77
4317.99418,78.45
4328.18335,78.14
4338.11545,77.83
4348.03911,77.51
4357.95428,77.17
4368.10852,76.82
4378.00647,76.46
4387.89588,76.10
4398.02365,75.74
4407.89572,75.37
4418.00568,74.97
4427.86033,74.55
4437.95239,74.15
4448.03535,73.69
4457.86361,73.24
4467.92856,72.77
4477.98436,72.31
4488.03098,71.81
4497.82371,71.33
4507.85215,70.84
4517.87137,70.32
4527.88132,69.82
4537.88201,69.31
4547.87339,68.77
4557.85547,68.20
4567.8282,67.64
4577.79159,67.10
4587.74559,66.54
4597.93263,65.98
4607.86759,65.41
4617.79312,64.82
4627.70918,64.23
4637.85727,63.64
4647.75413,63.04
4657.8825,62.43
4667.76006,61.84
4677.86863,61.24
4687.72681,60.60
4697.81549,59.98
4707.65421,59.35
4717.72291,58.76
4727.78147,58.13
4737.82987,57.51
4747.6292,56.88
4757.65745,56.26
4767.67547,55.61
4777.68325,54.96
4787.68076,54.32
4797.66798,53.65
4807.64489,52.99
4817.61146,52.33
4827.56768,51.66
4837.7502,50.98
4847.6854,50.31
4857.61017,49.64
4867.52451,48.96
4877.66406,48.29
4887.5572,47.61
4897.67501,46.96
4907.54687,46.30
4917.64285,45.64
4927.49333,44.96
4937.56739,44.28
4947.63031,43.61
4957.44846,42.94
4967.48933,42.29
4977.51901,41.64
4987.53748,40.99
4997.54471,40.31
5007.77669,39.63
5017.5958,38.97
5027.41389,38.33
5037.23094,37.68
5047.80198,37.03
5057.61687,36.38
5067.43072,35.75
5077.24353,35.09
5087.05529,34.44
5097.62063,33.81
5107.43021,33.16
5117.23874,32.54
5127.04622,31.89
5137.60694,31.26
5147.41222,30.62
5157.21644,29.98
5167.0196,29.35
5177.57566,28.72
5187.37661,28.10
5197.17649,27.47
5206.9753,26.88
5217.52667,26.27
5227.32325,25.70
5237.11875,25.11
5247.66655,24.52
5257.45981,23.96
5267.25199,23.38
5277.04309,22.81
5287.58613,22.26
5297.37496,21.72
5307.16271,21.17
5316.94936,20.65
5327.48761,20.12
5337.27198,19.60
5347.05526,19.11
5356.83743,18.61
5367.37085,18.13
5377.15073,17.65
5386.92951,17.18
5397.45926,16.72
5407.23573,16.28
5417.01108,15.86
5426.78532,15.41
5437.31018,14.99
5447.08209,14.55
5456.85289,14.13
5467.37403,13.74
5477.14249,13.33
5486.90982,12.95
5497.42722,12.57
5507.1922,12.18
5516.95605,11.82
5526.71876,11.46
5537.23118,11.12
5546.99153,10.77
5556.75073,10.44
5567.25936,10.12
5577.01619,9.81
5586.77186,9.50
5597.27669,9.22
5607.02998,8.93
5616.78211,8.65
5627.28311,8.39
5637.03283,8.10
5646.7814,7.83
5657.27855,7.56
5667.0247,7.29
5676.76968,7.05
5687.26297,6.82
5697.00552,6.59
5706.7469,6.39
5717.2363,6.15
5726.97524,5.92
5736.71299,5.70
5747.19849,5.48
5756.93379,5.28
5766.6679,5.11
5777.14946,4.94
5786.88111,4.78
5796.61156,4.59
5807.08918,4.37
5816.81715,4.17
5826.54393,3.97
5837.01758,3.80
5846.74186,3.61
5856.46493,3.45
5866.93459,3.30
5876.65516,3.12
5887.12211,2.98
5896.84017,2.83
5906.55701,2.68
5917.01994,2.54
5926.73425,2.42
5936.44734,2.29
5946.90623,2.16
5956.61678,2.05
5966.3261,1.94
5976.78092,1.83
5986.48769,1.73
5996.93976,1.63
6006.64396,1.53
6016.34693,1.44
6026.7949,1.35
6036.4953,1.25
6046.94049,1.17
6056.6383,1.11
6066.33486,1.06
6076.77592,1.00
6086.46988,0.95
6096.90814,0.87
6106.5995,0.82
6116.28961,0.75
6126.72369,0.72
6136.41118,0.68
6146.84244,0.64
6156.5273,0.61
6166.2109,0.57
6176.63796,0.51
6186.31891,0.45
6196.74313,0.39
6206.42143,0.36
6216.84279,0.35
6226.51844,0.34
6236.19281,0.34
6246.60992,0.33
6256.28161,0.32
6266.69585,0.31
6276.36486,0.31
6286.77621,0.30
6296.44254,0.29
6306.10758,0.29
6316.51462,0.28
6326.17696,0.27
6336.58109,0.27
6346.24072,0.26
6356.64194,0.25
6366.29885,0.25
6376.69713,0.24
6386.35132,0.24
6396.00419,0.23
6406.39812,0.23
6416.04825,0.22
6426.43923,0.22
6436.08662,0.21
6446.47463,0.21
6456.11926,0.20
6466.5043,0.20
6476.14617,0.19
6486.52823,0.19
6496.16733,0.18
6506.5464,0.18
6516.18272,0.18
6526.55879,0.17
6536.19232,0.17
6546.56538,0.16
6556.19611,0.16
6565.82549,0.16
6576.19408,0.15
6585.82065,0.15
6596.18621,0.15
6605.80996,0.14
6616.17248,0.14
6625.79341,0.14
6636.15287,0.13
6645.77096,0.13
6656.12737,0.13
6665.74262,0.13
6676.09596,0.12
6686.44771,0.12
6696.05861,0.12
6706.40728,0.12
6716.01532,0.11
6726.3609,0.11
6735.96606,0.11
6746.30854,0.11
6755.91082,0.10
6766.25019,0.10
6775.84958,0.10
6786.18583,0.10
6795.78232,0.10
6806.11544,0.09
6815.70902,0.09
6826.039,0.09
6835.62967,0.09
6845.95651,0.09
6856.28171,0.09
6865.86793,0.09
6876.18997,0.08
6885.77325,0.08
6896.09212,0.08
6905.67246,0.08
6915.98815,0.08
6925.56553,0.08
6935.87803,0.08
6946.18888,0.08
6955.76176,0.08
6966.0694,0.08
6975.6393,0.07
6985.94374,0.07
6995.51065,0.07
7005.81187,0.07
7016.11141,0.07
7025.67377,0.07
7035.97008,0.07
7045.52944,0.07
7055.82251,0.07
7066.11389,0.07
7075.66866,0.07
7085.95679,0.07
7095.50853,0.07
7105.79339,0.07
7116.07655,0.07
7125.62368,0.07
7135.90357,0.07
7145.44765,0.07
7155.72424,0.07
7165.99913,0.07
7175.53856,0.07
7185.81014,0.07
7195.3465,0.07
7205.61477,0.07
7215.88132,0.07
7225.41301,0.07
7235.67623,0.07
7245.93773,0.07
7255.46471,0.07
7265.72286,0.07
7275.24674,0.07
7285.50155,0.07
7295.75462,0.07
7305.27376,0.07
7315.52347,0.07
7325.77143,0.07
7335.28582,0.07
7345.53041,0.07
7355.77323,0.07
7365.28286,0.07
7375.5223,0.07
7385.75997,0.07
7395.26481,0.07
7405.49908,0.07
7415.73158,0.07
7425.23161,0.07
7435.46069,0.07
7445.688,0.07
7455.1832,0.07
7465.40708,0.07
7475.62917,0.07
7485.11952,0.07
7495.33817,0.07
7505.55503,0.07
7515.04051,0.07
7525.25391,0.07
7535.46552,0.07
7545.67532,0.07
7555.15424,0.07
7565.36057,0.08
7575.56509,0.08
7585.0391,0.08
7595.24013,0.08
7605.43934,0.08
7615.63674,0.08
7625.10412,0.08
7635.29801,0.08
7645.49008,0.08
7654.9525,0.08
7665.14105,0.08
7675.32776,0.08
7685.51264,0.08
7694.96838,0.08
7705.14972,0.08
7715.32921,0.08
7725.50687,0.08
7734.95589,0.08
7745.12999,0.08
7755.30223,0.08
7765.47262,0.08
7774.91489,0.08
7785.08171,0.09
7795.24666,0.09
7805.40975,0.09
7814.84524,0.09
7825.00473,0.09
7835.16236,0.09
7845.31811,0.09
7855.472,0.09
7864.89892,0.09
7875.04918,0.09
7885.19756,0.09
7895.34406,0.09
7904.76412,0.09
7914.90697,0.09
7925.04794,0.09
7935.18702,0.09
7945.3242,0.09
7954.73559,0.09
7964.86911,0.09
7975.00073,0.09
7985.13044,0.09
7995.25825,0.09
8004.66093,0.09
8014.78505,0.09
8024.90725,0.09
8035.02754,0.10
8045.14591,0.10
8055.26236,0.10
8064.65449,0.10
8074.76722,0.10
8084.87803,0.10
8094.98691,0.10
8105.09385,0.10
8115.19886,0.10
8124.58035,0.10
8134.68162,0.10
8144.78094,0.10
8154.87833,0.10
8164.97376,0.10
8175.06724,0.10
8185.15877,0.10
8194.52773,0.10
8204.61549,0.10
8214.70129,0.10
8224.78513,0.10
8234.867,0.10
8244.94691,0.10
8255.02485,0.10
8265.10081,0.10
8274.4553,0.10
8284.52746,0.10
8294.59764,0.10
8304.66584,0.10
8314.73205,0.10
8324.79628,0.10
8334.85852,0.10
8344.91877,0.10
8354.97703,0.10
8365.03329,0.10
8374.36946,0.10
8384.42187,0.10
8394.47227,0.10
8404.52067,0.10
8414.56706,0.10
8424.61145,0.10
8434.65382,0.10
8444.69418,0.10
8454.73252,0.10
8464.76884,0.10
8474.80314,0.10
8484.83541,0.10
8494.86566,0.10
8504.89388,0.10
8514.92007,0.10
8524.22828,0.10
8534.25055,0.10
8544.27078,0.10
8554.28896,0.10
8564.30511,0.10
8574.31921,0.10
8584.33126,0.10
8594.34126,0.10
8604.34921,0.10
8614.3551,0.10
8624.35894,0.10
8634.36071,0.10
8644.36043,0.10
8654.35808,0.10
8664.35366,0.10
8674.34717,0.10
8684.33861,0.10
8694.32798,0.10
8704.31527,0.10
8714.30049,0.10
8724.28362,0.10
8734.26467,0.10
8744.24363,0.10
8754.2205,0.10
8764.19529,0.10
8774.16798,0.10
8784.13857,0.10
8794.10707,0.10
8804.07347,0.10
8814.03776,0.10
8823.99995,0.10
8833.96003,0.09
8844.62921,0.09
8854.58492,0.09
8864.53851,0.09
8874.48999,0.09
8884.43935,0.09
8894.38658,0.09
8904.33169,0.09
8914.27468,0.09
8924.21554,0.09
8934.15426,0.09
8944.09085,0.09
8954.02531,0.09
8963.95763,0.09
8973.8878,0.09
8984.5249,0.09
8994.45063,0.09
9004.37422,0.09
9014.29566,0.09
9024.21494,0.09
9034.13207,0.09
9044.04704,0.09
9053.95985,0.09
9063.8705,0.09
9073.77898,0.09
9084.39281,0.09
9094.2968,0.09
9104.19862,0.08
9114.09827,0.08
9123.99574,0.08
9133.89103,0.08
9143.78414,0.08
9154.38148,0.08
9164.27006,0.08
9174.15645,0.08
9184.04066,0.08
9193.92267,0.08
9203.80248,0.08
9213.6801,0.08
9224.26082,0.08
9234.13387,0.08
9244.00472,0.08
9253.87337,0.08
9263.7398,0.08
9273.60402,0.08
9284.17037,0.08
9294.03,0.08
9303.88741,0.08
9313.7426,0.08
9323.59556,0.07
9334.14984,0.07
9343.99819,0.07
9353.84431,0.07
9363.68819,0.07
9373.52984,0.07
9384.07198,0.07
9393.90899,0.07
9403.74375,0.07
9413.57627,0.07
9424.10862,0.07
9433.93648,0.07
9443.76208,0.07
9453.58543,0.07
9464.10795,0.07
9473.92662,0.07
9483.74303,0.07
9493.55717,0.07
9504.06981,0.07
9513.87926,0.07
9523.68643,0.07
9533.49133,0.06
9543.99405,0.06
9553.79423,0.06
9563.59213,0.06
9573.38774,0.06
9583.88051,0.06
9593.67138,0.06
9603.45997,0.06
9613.94519,0.06
9623.72902,0.06
9633.51055,0.06
9643.28979,0.06
9653.76498,0.06
9663.53944,0.06
9673.31159,0.06
9683.77919,0.06
9693.54655,0.06
9703.3116,0.06
9713.77158,0.06
9723.53182,0.06
9733.28975,0.06
9743.74209,0.06
9753.49519,0.05
9763.24597,0.05
9773.69064,0.05
9783.43658,0.05
9793.18019,0.05
9803.61718,0.05
9813.35594,0.05
9823.78772,0.05
9833.52162,0.05
9843.25318,0.05
9853.67724,0.05
9863.40392,0.05
9873.12824,0.05
9883.54455,0.05
9893.26399,0.05
9903.67505,0.05
9913.3896,0.05
9923.10177,0.05
9933.50504,0.05
9943.21231,0.05
9953.61031,0.05
9963.31266,0.05
9973.01262,0.05
9983.40279,0.05
9993.09782,0.04
10003.4827,0.04
10013.17278,0.04
10023.55236,0.04
10033.23748,0.04
10043.61174,0.04
10053.2919,0.04
10062.96966,0.04
10073.33602,0.04
10083.0088,0.04
10093.36982,0.04
10103.0376,0.04
10113.39327,0.04
10123.05605,0.04
10133.40636,0.04
10143.06413,0.04
10153.40906,0.04
10163.06182,0.04
10173.40136,0.04
10183.04909,0.04
10193.38323,0.04
10203.02592,0.04
10213.35466,0.04
10222.9923,0.04
10233.31563,0.04
10242.9482,0.04
10253.2661,0.04
10262.89361,0.04
10273.20607,0.04
10282.8285,0.04
10293.13552,0.04
10302.75285,0.03
10313.05441,0.03
10323.35314,0.03
10332.96274,0.03
10343.256,0.03
10352.86048,0.03
10363.14825,0.03
10372.74761,0.03
10383.02988,0.03
10393.30931,0.03
10402.90088,0.03
10413.1748,0.03
10422.76121,0.03
10433.02961,0.03
10443.29515,0.03
10452.87373,0.03
10463.13373,0.03
10472.70714,0.03
10482.96159,0.03
10493.21317,0.03
10502.77871,0.03
10513.02472,0.03
10522.58507,0.03
10532.8255,0.03
10543.06305,0.03
10552.61549,0.03
10562.84745,0.03
10573.07651,0.03
10582.62103,0.03
10592.84448,0.03
10603.06503,0.03
10612.60159,0.03
10622.81652,0.03
10633.02854,0.03
10642.55713,0.03
10652.76351,0.03
10662.96697,0.03
10672.48756,0.03
10682.68536,0.03
10692.88024,0.03
10703.07218,0.03
10712.58202,0.03
10722.76828,0.03
10732.95161,0.02
10742.4534,0.02
10752.63104,0.02
10762.80573,0.02
10772.97747,0.02
10782.46842,0.02
10792.63445,0.02
10802.79752,0.02
10812.95762,0.02
10822.43772,0.02
10832.59209,0.02
10842.74349,0.02
10852.89192,0.02
10862.3611,0.02
10872.50378,0.02
10882.64347,0.02
10892.78018,0.02
10902.91391,0.02
10912.36935,0.02
10922.4973,0.02
10932.62225,0.02
10942.7442,0.02
10952.86315,0.02
10962.30479,0.02
10972.41794,0.02
10982.52807,0.02
10992.6352,0.02
11002.73931,0.02
11012.16709,0.02
11022.26536,0.02
11032.36062,0.02
11042.45285,0.02
11052.54205,0.02
11062.62822,0.02
11072.71136,0.02
11082.11955,0.02
11092.19682,0.02
11102.27105,0.02
11112.34223,0.02
11122.41037,0.02
11132.47546,0.02
11142.53749,0.02
11152.59647,0.02
11162.6524,0.01
11172.03516,0.01
11182.08517,0.01
11192.13211,0.01
11202.17598,0.01
11212.21677,0.01
11222.2545,0.01
11232.28915,0.01
11242.32072,0.01
11252.3492,0.01
11262.37461,0.01
11272.39692,0.01
11282.41614,0.01
11292.43228,0.01
11302.44531,0.01
11312.45525,0.01
11322.46208,0.01
11332.46581,0.01
11342.46644,0.01
11352.46395,0.01
11362.45835,0.01
11372.44964,0.01
11382.43781,0.01
11392.42286,0.01
11402.40478,0.01
11412.38358,0.01
11422.35925,0.01
11432.33179,0.01
11442.30119,0.01
11452.26746,0.01
11462.23059,0.01
11472.19058,0.01
11482.14742,0.01
11492.10111,0.01
11502.05165,0.01
11511.99904,0.01
11521.94327,0.01
11531.88435,0.01
11541.82226,0.01
11551.75701,0.01
11562.35058,0.01
11572.27878,0.01
11582.20381,0.01
11592.12566,0.01
11602.04433,0.01
11611.95982,0.01
11621.87213,0.01
11631.78126,0.01
11641.68719,0.01
11652.25,0.01
11662.14934,0.01
11672.04548,0.01
11681.93842,0.01
11691.82815,0.01
11701.71468,0.01
11711.598,0.01
11722.13667,0.01
11732.01336,0.01
11741.88682,0.01
11751.75707,0.01
11761.6241,0.01
11772.14537,0.02
11782.00573,0.02
11791.86286,0.02
11801.71676,0.02
11811.56742,0.02
11822.07122,0.02
11831.91518,0.02
11841.75591,0.02
11851.59338,0.02
11862.08311,0.02
11871.91386,0.02
11881.74137,0.02
11891.56561,0.02
11902.04121,0.03
11911.85872,0.03
11921.67295,0.03
11931.48393,0.03
11941.94535,0.03
11951.74956,0.03
11961.55049,0.03
11972.0012,0.03
11981.79535,0.03
11991.58622,0.03
12001.3738,0.04
12011.81025,0.04
12021.59103,0.04
12031.36851,0.04
12041.79418,0.04
12051.56484,0.04
12061.3322,0.04
12071.74706,0.04
12081.50758,0.04
12091.91515,0.04
12101.66882,0.05
12111.41918,0.05
12121.81589,0.05
12131.55938,0.05
12141.29954,0.05
12151.68538,0.05
12161.41866,0.05
12171.79715,0.05
12181.52353,0.05
12191.24658,0.06
12201.61415,0.06
12211.33028,0.06
12221.69047,0.06
12231.39968,0.06
12241.75248,0.06
12251.45476,0.06
12261.15369,0.06
12271.4955,0.07
12281.18747,0.07
12291.52186,0.07
12301.20688,0.07
12311.53384,0.07
12321.21188,0.07
12331.53139,0.07
12341.20245,0.07
12351.51451,0.08
12361.17857,0.08
12371.48316,0.08
12381.14022,0.08
12391.43733,0.08
12401.08737,0.08
12411.37699,0.08
12421.02,0.09
12431.30211,0.09
12441.58036,0.09
12451.21268,0.09
12461.4834,0.09
12471.10867,0.09
12481.37186,0.09
12490.99006,0.10
12501.2457,0.10
12511.49743,0.10
12521.1049,0.10
12531.34907,0.10
12540.94944,0.10
12551.18603,0.10
12561.41872,0.11
12571.0083,0.11
12581.23339,0.11
12591.45455,0.11
12601.03333,0.11
12611.24688,0.11
12621.4565,0.11
12631.02444,0.12
12641.22643,0.12
12651.42447,0.12
12660.98156,0.12
12671.17195,0.12
12681.35839,0.12
12690.90459,0.12
12701.08337,0.13
12711.25818,0.13
12720.79347,0.13
12730.9606,0.13
12741.12376,0.13
12751.28294,0.13
12760.80356,0.13
12770.95504,0.14
12781.10253,0.14
12791.24603,0.14
12800.75194,0.14
12810.88771,0.14
12821.01949,0.14
12831.14726,0.14
12841.27103,0.15
12850.75843,0.15
12860.87444,0.15
12870.98644,0.15
12881.09442,0.15
12891.19839,0.15
12900.6672,0.15
12910.76337,0.16
12920.85552,0.16
12930.94363,0.16
12941.02771,0.16
12951.10775,0.16
12960.55412,0.16
12970.62634,0.16
12980.6945,0.16
12990.75862,0.17
13000.81869,0.17
13010.8747,0.17
13020.92665,0.17
13030.97454,0.17
13041.01837,0.17
13051.05812,0.17
13061.09381,0.17
13070.49857,0.18
13080.52636,0.18
13090.55007,0.18
13100.5697,0.18
13110.58524,0.18
13120.59669,0.18
13130.60405,0.18
13140.60731,0.18
13150.60647,0.18
13160.60153,0.18
13170.59249,0.18
13180.57934,0.19
13190.56207,0.19
13200.5407,0.19
13210.5152,0.19
13220.48559,0.19
13230.45185,0.19
13240.41398,0.19
13250.37198,0.19
13260.32585,0.19
13270.89731,0.19
13280.84264,0.19
13290.78383,0.19
13300.72088,0.19
13310.65378,0.19
13320.58252,0.19
13330.50712,0.19
13340.42755,0.19
13350.34382,0.19
13360.25593,0.19
13370.78297,0.19
13380.68648,0.19
13390.58582,0.19
13400.48098,0.19
13410.37195,0.19
13420.25875,0.19
13430.75888,0.19
13440.63704,0.19
13450.511,0.19
13460.38077,0.19
13470.24634,0.19
13480.72391,0.19
13490.58081,0.19
13500.4335,0.19
13510.28198,0.19
13520.12625,0.19
13530.58117,0.19
13540.41673,0.19
13550.24807,0.18
13560.07519,0.18
13570.51187,0.18
13580.33025,0.18
13590.14441,0.18
13600.5673,0.18
13610.3727,0.18
13620.17386,0.18
13630.58294,0.17
13640.37534,0.17
13650.16348,0.17
13660.55871,0.17
13670.33806,0.17
13680.11315,0.16
13690.49451,0.16
13700.2608,0.16
13710.02281,0.16
13720.39026,0.16
13730.14345,0.15
13740.50152,0.15
13750.24587,0.15
13759.98593,0.15
13770.33005,0.14
13780.06126,0.14
13790.39595,0.14
13800.11829,0.13