"TransVSlowSam8 - RawData"
"Wavelength nm.","T%"
190.00,2.48379
191.00,1.23570
192.00,0.98150
193.00,0.71420
194.00,0.54710
195.00,0.54366
196.00,0.45484
197.00,0.38142
198.00,0.36538
199.00,0.38770
200.00,0.32723
201.00,0.33457
202.00,0.28014
203.00,0.30774
204.00,0.31025
205.00,0.26126
206.00,0.26632
207.00,0.27361
208.00,0.23885
209.00,0.23832
210.00,0.25128
211.00,0.25367
212.00,0.23883
213.00,0.28601
214.00,0.25142
215.00,0.26455
216.00,0.27016
217.00,0.29008
218.00,0.28046
219.00,0.29353
220.00,0.32764
221.00,0.31554
222.00,0.34225
223.00,0.36242
224.00,0.38612
225.00,0.38784
226.00,0.41736
227.00,0.47791
228.00,0.50766
229.00,0.56886
230.00,0.66245
231.00,0.74741
232.00,0.90072
233.00,1.04930
234.00,1.19655
235.00,1.40862
236.00,1.63105
237.00,1.87897
238.00,2.15857
239.00,2.46259
240.00,2.83364
241.00,3.29532
242.00,3.79451
243.00,4.39195
244.00,5.09474
245.00,5.92434
246.00,6.88507
247.00,7.91632
248.00,9.15116
249.00,10.54498
250.00,12.15429
251.00,14.01767
252.00,16.12281
253.00,18.53536
254.00,21.15354
255.00,24.02173
256.00,27.02438
257.00,29.82938
258.00,32.67632
259.00,35.33953
260.00,37.84928
261.00,40.15573
262.00,42.63001
263.00,44.84223
264.00,46.74129
265.00,48.60034
266.00,50.00511
267.00,51.18923
268.00,52.29597
269.00,52.92707
270.00,53.44670
271.00,53.64341
272.00,53.81580
273.00,53.72359
274.00,53.56128
275.00,53.46100
276.00,53.21776
277.00,53.05097
278.00,52.94660
279.00,53.00961
280.00,52.89842
281.00,53.00197
282.00,53.22043
283.00,53.59799
284.00,53.82562
285.00,54.27157
286.00,54.77505
287.00,55.27535
288.00,55.63642
289.00,56.21505
290.00,56.75457
291.00,57.10964
292.00,57.48484
293.00,57.85291
294.00,58.07471
295.00,58.29903
296.00,58.27788
297.00,58.47065
298.00,58.51111
299.00,58.46330
300.00,58.25481
301.00,58.14633
302.00,57.98846
303.00,57.76310
304.00,57.57722
305.00,57.32429
306.00,57.03209
307.00,56.83139
308.00,56.54749
309.00,56.50954
310.00,56.35751
311.00,56.17743
312.00,56.22831
313.00,56.27193
314.00,56.08616
315.00,56.27161
316.00,56.44289
317.00,56.35886
318.00,56.52509
319.00,56.59985
320.00,56.90256
321.00,57.10887
322.00,57.36828
323.00,57.75996
324.00,57.71319
325.00,57.93372
326.00,58.26623
327.00,58.58027
328.00,58.69952
329.00,59.01382
330.00,59.21068
331.00,59.48949
332.00,59.65230
333.00,59.73440
334.00,59.85566
335.00,59.82760
336.00,59.98991
337.00,60.14951
338.00,59.95582
339.00,59.99387
340.00,59.85330
341.00,59.82497
342.00,59.90378
343.00,59.54388
344.00,59.46842
345.00,59.40963
346.00,59.15681
347.00,58.93521
348.00,58.93535
349.00,58.65699
350.00,58.50686
351.00,58.46498
352.00,58.24108
353.00,58.11707
354.00,57.97375
355.00,57.85946
356.00,57.76374
357.00,57.67430
358.00,57.54730
359.00,57.57335
360.00,57.55677
361.00,57.53543
362.00,57.48004
363.00,57.49760
364.00,57.54863
365.00,57.56750
366.00,57.65598
367.00,57.68996
368.00,57.82450
369.00,57.91538
370.00,58.06449
371.00,58.16947
372.00,58.31217
373.00,58.58582
374.00,58.59984
375.00,58.71132
376.00,58.95019
377.00,59.12659
378.00,59.29348
379.00,59.41792
380.00,59.65697
381.00,59.78940
382.00,59.97713
383.00,60.06782
384.00,60.28794
385.00,60.35789
386.00,60.54354
387.00,60.62305
388.00,60.73855
389.00,60.89060
390.00,60.95713
391.00,60.98539
392.00,61.07208
393.00,61.07683
394.00,61.15137
395.00,61.15130
396.00,61.21159
397.00,61.21175
398.00,61.21593
399.00,61.16897
400.00,61.17390
401.00,61.11842
402.00,61.05837
403.00,61.04038
404.00,60.96411
405.00,60.90603
406.00,60.79804
407.00,60.75422
408.00,60.60061
409.00,60.55282
410.00,60.45310
411.00,60.35230
412.00,60.21676
413.00,60.15313
414.00,60.07065
415.00,59.96353
416.00,59.89210
417.00,59.77066
418.00,59.70525
419.00,59.63715
420.00,59.55468
421.00,59.44740
422.00,59.38082
423.00,59.28628
424.00,59.20199
425.00,59.14987
426.00,59.10858
427.00,59.12435
428.00,59.02268
429.00,59.01061
430.00,58.99954
431.00,58.96813
432.00,58.97001
433.00,58.94595
434.00,58.96024
435.00,58.96165
436.00,58.96138
437.00,58.97859
438.00,59.01757
439.00,59.08790
440.00,59.13381
441.00,59.14556
442.00,59.21914
443.00,59.30225
444.00,59.36512
445.00,59.41406
446.00,59.46387
447.00,59.61195
448.00,59.69286
449.00,59.74588
450.00,59.81858
451.00,59.88768
452.00,60.02403
453.00,60.10844
454.00,60.25061
455.00,60.35767
456.00,60.44893
457.00,60.55906
458.00,60.63359
459.00,60.76167
460.00,60.86919
461.00,60.98106
462.00,61.12006
463.00,61.25510
464.00,61.35062
465.00,61.42106
466.00,61.49914
467.00,61.62214
468.00,61.69659
469.00,61.77492
470.00,61.84354
471.00,61.89601
472.00,62.01026
473.00,62.05601
474.00,62.06595
475.00,62.14238
476.00,62.21206
477.00,62.25321
478.00,62.27436
479.00,62.31373
480.00,62.32291
481.00,62.36603
482.00,62.38871
483.00,62.43430
484.00,62.47731
485.00,62.47585
486.00,62.49788
487.00,62.52908
488.00,62.53534
489.00,62.51351
490.00,62.54882
491.00,62.49552
492.00,62.54339
493.00,62.46933
494.00,62.51822
495.00,62.45950
496.00,62.43715
497.00,62.45140
498.00,62.41428
499.00,62.39262
500.00,62.36662
501.00,62.31584
502.00,62.29258
503.00,62.21090
504.00,62.14905
505.00,62.13667
506.00,62.11288
507.00,62.03424
508.00,61.99731
509.00,61.95433
510.00,61.91680
511.00,61.84172
512.00,61.80162
513.00,61.79866
514.00,61.68570
515.00,61.61961
516.00,61.61916
517.00,61.53557
518.00,61.50584
519.00,61.44008
520.00,61.39954
521.00,61.41130
522.00,61.29629
523.00,61.24717
524.00,61.18983
525.00,61.15298
526.00,61.12366
527.00,61.04984
528.00,60.98846
529.00,60.98793
530.00,60.97015
531.00,60.96393
532.00,60.89866
533.00,60.85638
534.00,60.85011
535.00,60.80761
536.00,60.79653
537.00,60.77257
538.00,60.74222
539.00,60.71161
540.00,60.70133
541.00,60.69746
542.00,60.71177
543.00,60.67970
544.00,60.68525
545.00,60.66743
546.00,60.68649
547.00,60.70377
548.00,60.66368
549.00,60.69610
550.00,60.70319
551.00,60.70829
552.00,60.73298
553.00,60.77365
554.00,60.78832
555.00,60.80061
556.00,60.84445
557.00,60.85135
558.00,60.88567
559.00,60.90575
560.00,60.96243
561.00,61.02004
562.00,61.01112
563.00,61.10693
564.00,61.16682
565.00,61.14835
566.00,61.17644
567.00,61.19948
568.00,61.24837
569.00,61.27403
570.00,61.27037
571.00,61.28505
572.00,61.31173
573.00,61.32511
574.00,61.35778
575.00,61.36658
576.00,61.40042
577.00,61.43543
578.00,61.45732
579.00,61.50963
580.00,61.55756
581.00,61.60696
582.00,61.64712
583.00,61.74524
584.00,61.75184
585.00,61.85713
586.00,61.91999
587.00,62.00637
588.00,62.05325
589.00,62.13288
590.00,62.18494
591.00,62.25690
592.00,62.29973
593.00,62.40859
594.00,62.46961
595.00,62.52673
596.00,62.63564
597.00,62.66420
598.00,62.74876
599.00,62.83200
600.00,62.90918
601.00,62.97439
602.00,63.01941
603.00,63.14088
604.00,63.16605
605.00,63.22269
606.00,63.29620
607.00,63.37214
608.00,63.43352
609.00,63.52452
610.00,63.57868
611.00,63.62604
612.00,63.65265
613.00,63.73171
614.00,63.78358
615.00,63.84371
616.00,63.88708
617.00,63.96872
618.00,63.99397
619.00,64.05262
620.00,64.07223
621.00,64.15973
622.00,64.18573
623.00,64.25019
624.00,64.25130
625.00,64.28192
626.00,64.35392
627.00,64.41421
628.00,64.39764
629.00,64.47279
630.00,64.53159
631.00,64.53034
632.00,64.53907
633.00,64.59578
634.00,64.59461
635.00,64.59524
636.00,64.65685
637.00,64.65172
638.00,64.67497
639.00,64.72695
640.00,64.70084
641.00,64.73532
642.00,64.76746
643.00,64.76564
644.00,64.79159
645.00,64.78360
646.00,64.78880
647.00,64.81789
648.00,64.81205
649.00,64.83008
650.00,64.80250
651.00,64.84972
652.00,64.80663
653.00,64.79937
654.00,64.82870
655.00,64.83881
656.00,64.85410
657.00,64.81573
658.00,64.82700
659.00,64.76394
660.00,64.78593
661.00,64.77728
662.00,64.84439
663.00,64.73316
664.00,64.78173
665.00,64.69392
666.00,64.76456
667.00,64.75367
668.00,64.73418
669.00,64.70452
670.00,64.72949
671.00,64.63251
672.00,64.67751
673.00,64.64453
674.00,64.59148
675.00,64.53981
676.00,64.61250
677.00,64.57294
678.00,64.54300
679.00,64.49294
680.00,64.53465
681.00,64.46975
682.00,64.39484
683.00,64.39275
684.00,64.40861
685.00,64.40823
686.00,64.34215
687.00,64.36967
688.00,64.34422
689.00,64.29955
690.00,64.29384
691.00,64.33593
692.00,64.22106
693.00,64.23425
694.00,64.14795
695.00,64.16438
696.00,64.18030
697.00,64.17578
698.00,64.14287
699.00,64.07769
700.00,64.03834
701.00,64.05404
702.00,64.04835
703.00,63.95322
704.00,64.02444
705.00,64.01598
706.00,63.97017
707.00,63.96580
708.00,63.93909
709.00,63.93496
710.00,63.88900
711.00,63.87225
712.00,63.76063
713.00,63.89772
714.00,63.80672
715.00,63.79069
716.00,63.72892
717.00,63.75280
718.00,63.67984
719.00,63.78562
720.00,63.74930
721.00,63.66681
722.00,63.69058
723.00,63.70884
724.00,63.73309
725.00,63.73217
726.00,63.64761
727.00,63.69871
728.00,63.58654
729.00,63.70268
730.00,63.53666
731.00,63.65117
732.00,63.60394
733.00,63.55129
734.00,63.49913
735.00,63.60008
736.00,63.63326
737.00,63.60639
738.00,63.58537
739.00,63.50211
740.00,63.55472
741.00,63.49836
742.00,63.54943
743.00,63.64688
744.00,63.54933
745.00,63.64941
746.00,63.53372
747.00,63.53309
748.00,63.61937
749.00,63.66148
750.00,63.67634
751.00,63.59371
752.00,63.64648
753.00,63.67121
754.00,63.61363
755.00,63.67093
756.00,63.74804
757.00,63.72683
758.00,63.77468
759.00,63.65429
760.00,63.75721
761.00,63.69165
762.00,63.76208
763.00,63.87506
764.00,63.81380
765.00,63.72877
766.00,63.64192
767.00,63.71349
768.00,63.74969
769.00,63.78716
770.00,63.68911
771.00,63.96662
772.00,64.02205
773.00,63.80627
774.00,63.89354
775.00,63.99683
776.00,63.87201
777.00,63.88505
778.00,64.11862
779.00,64.03811
780.00,64.09182
781.00,64.06574
782.00,63.96138
783.00,64.17433
784.00,64.08357
785.00,64.12083
786.00,64.16229
787.00,64.18874
788.00,64.09016
789.00,64.21431
790.00,64.20839
791.00,64.32223
792.00,64.25509
793.00,64.36208
794.00,64.40643
795.00,64.22981
796.00,64.45032
797.00,64.46640
798.00,64.48513
799.00,64.56414
800.00,64.53317
801.00,64.44019
802.00,64.66923
803.00,64.54008
804.00,64.58266
805.00,64.59182
806.00,64.64009
807.00,64.80456
808.00,64.81073
809.00,64.83839
810.00,64.91867
811.00,64.94622
812.00,64.87815
813.00,64.90862
814.00,64.81231
815.00,64.88197
816.00,64.97557
817.00,65.19149
818.00,65.10999
819.00,65.22411
820.00,64.93093
821.00,65.02166
822.00,65.26672
823.00,65.11929
824.00,65.40344
825.00,65.29213
826.00,65.39911
827.00,65.32878
828.00,65.29758
829.00,65.56584
830.00,65.48157
831.00,65.63872
832.00,65.61726
833.00,65.88026
834.00,65.49104
835.00,65.59514
836.00,65.43897
837.00,65.85978
838.00,65.70821
839.00,66.05655
840.00,65.83475
841.00,65.64503
842.00,66.09188
843.00,65.93846
844.00,65.99377
845.00,65.98305
846.00,66.09228
847.00,65.88697
848.00,66.23124
849.00,66.47412
850.00,66.14193
851.00,66.18349
852.00,66.67072
853.00,65.94645
854.00,66.31922
855.00,65.78196
856.00,66.79528
857.00,66.88085
858.00,66.68553
859.00,67.73929
860.00,67.24388
861.00,66.43050
862.00,66.95648
863.00,66.61675
864.00,66.48178
865.00,66.25738
866.00,67.18922
867.00,66.81976
868.00,66.68578
869.00,65.93309
870.00,67.35198
871.00,65.55504
872.00,69.18147
873.00,68.30639
874.00,66.08642
875.00,67.06194
876.00,68.53591
877.00,67.71370
878.00,67.58898
879.00,70.60240
880.00,66.50429
881.00,67.89554
882.00,64.40277
883.00,66.56200
884.00,68.18781
885.00,65.71923
886.00,68.54767
887.00,69.96474
888.00,66.50895
889.00,63.72815
890.00,67.19166
891.00,68.13319
892.00,67.82826
893.00,65.42719
894.00,65.58255
895.00,67.06071
896.00,67.00495
897.00,63.63387
898.00,68.37223
899.00,66.04446
900.00,70.52709
