"Sam7StandardHolder - RawData"
"Wavelength nm.","T%"
190.00,4.85258
191.00,2.12038
192.00,2.37694
193.00,2.29362
194.00,1.13492
195.00,1.51750
196.00,1.15864
197.00,1.08780
198.00,1.31259
199.00,0.89574
200.00,1.09066
201.00,0.77271
202.00,1.07601
203.00,0.71112
204.00,0.78904
205.00,1.02230
206.00,0.77513
207.00,0.71382
208.00,0.80869
209.00,0.78092
210.00,0.56980
211.00,0.64670
212.00,0.62164
213.00,0.55291
214.00,0.55065
215.00,0.50355
216.00,0.60611
217.00,0.48969
218.00,0.51176
219.00,0.55622
220.00,0.52448
221.00,0.52555
222.00,0.49830
223.00,0.45273
224.00,0.47281
225.00,0.50333
226.00,0.44699
227.00,0.49605
228.00,0.47738
229.00,0.57819
230.00,0.63083
231.00,0.66021
232.00,0.78764
233.00,0.87084
234.00,0.99940
235.00,1.15901
236.00,1.48034
237.00,1.75674
238.00,1.98367
239.00,2.37150
240.00,2.73466
241.00,3.22259
242.00,3.74423
243.00,4.33133
244.00,5.05746
245.00,5.96467
246.00,6.81364
247.00,7.90151
248.00,9.19392
249.00,10.83158
250.00,12.49090
251.00,14.76604
252.00,17.28518
253.00,20.25220
254.00,23.68025
255.00,27.73952
256.00,32.12498
257.00,36.34376
258.00,40.86468
259.00,45.15563
260.00,48.73399
261.00,52.22875
262.00,54.95749
263.00,57.09434
264.00,58.79200
265.00,60.36983
266.00,61.15280
267.00,62.28544
268.00,62.97081
269.00,63.29404
270.00,63.82871
271.00,63.76793
272.00,64.00098
273.00,65.09165
274.00,65.10507
275.00,65.68329
276.00,66.15421
277.00,66.68159
278.00,67.09045
279.00,66.89703
280.00,67.23379
281.00,67.61671
282.00,67.87183
283.00,67.50318
284.00,67.51314
285.00,67.37654
286.00,68.08494
287.00,67.79343
288.00,68.09908
289.00,67.65984
290.00,67.76516
291.00,68.08437
292.00,68.04207
293.00,68.04996
294.00,68.28660
295.00,68.76047
296.00,68.82856
297.00,69.10812
298.00,68.93741
299.00,69.12873
300.00,69.30788
301.00,69.83482
302.00,69.76603
303.00,69.87618
304.00,70.29587
305.00,70.27380
306.00,70.48184
307.00,70.85507
308.00,70.27202
309.00,70.51969
310.00,70.67986
311.00,70.49188
312.00,70.72207
313.00,70.44809
314.00,69.98442
315.00,70.36060
316.00,69.81117
317.00,69.68683
318.00,70.66572
319.00,70.08678
320.00,69.77456
321.00,70.39444
322.00,69.85940
323.00,69.98649
324.00,70.30844
325.00,69.61676
326.00,70.10344
327.00,70.11173
328.00,69.94262
329.00,69.76798
330.00,70.42090
331.00,70.56283
332.00,71.02261
333.00,70.47495
334.00,71.04707
335.00,70.71840
336.00,71.03258
337.00,71.15143
338.00,71.58538
339.00,71.30621
340.00,71.65302
341.00,71.50207
342.00,71.42448
343.00,71.52323
344.00,71.90105
345.00,71.83349
346.00,71.36238
347.00,71.81497
348.00,71.28453
349.00,71.79186
350.00,71.76307
351.00,71.60866
352.00,71.56289
353.00,71.33121
354.00,71.27606
355.00,71.13436
356.00,70.89599
357.00,71.25337
358.00,71.18671
359.00,70.81264
360.00,71.02882
361.00,71.01362
362.00,70.91694
363.00,70.91906
364.00,71.08380
365.00,70.89093
366.00,70.94158
367.00,70.95257
368.00,70.92981
369.00,70.97683
370.00,71.00926
371.00,71.35091
372.00,71.20471
373.00,71.45696
374.00,71.34911
375.00,71.62309
376.00,71.52498
377.00,71.47626
378.00,71.39903
379.00,71.89609
380.00,71.90193
381.00,71.87633
382.00,72.02916
383.00,72.19814
384.00,72.15006
385.00,72.31533
386.00,72.58585
387.00,72.52223
388.00,72.61281
389.00,72.63062
390.00,72.67175
391.00,72.54442
392.00,72.72100
393.00,72.68141
394.00,72.76852
395.00,72.80996
396.00,72.65551
397.00,72.82150
398.00,72.73163
399.00,72.67317
400.00,72.71359
401.00,72.63675
402.00,72.54521
403.00,72.55604
404.00,72.60376
405.00,72.45458
406.00,72.50393
407.00,72.27162
408.00,72.35973
409.00,72.25974
410.00,72.35585
411.00,71.97878
412.00,71.86413
413.00,71.83965
414.00,71.98002
415.00,71.78215
416.00,71.82887
417.00,71.62351
418.00,71.93800
419.00,71.75415
420.00,71.80906
421.00,71.72754
422.00,71.67948
423.00,71.68179
424.00,71.64752
425.00,71.83068
426.00,71.84106
427.00,71.76087
428.00,71.71757
429.00,71.79195
430.00,71.93053
431.00,71.91826
432.00,71.98498
433.00,72.09376
434.00,72.03993
435.00,72.12960
436.00,72.21960
437.00,72.27527
438.00,72.34374
439.00,72.39147
440.00,72.51327
441.00,72.45326
442.00,72.65890
443.00,72.79425
444.00,72.84182
445.00,72.95451
446.00,73.03280
447.00,73.03160
448.00,73.13212
449.00,73.30903
450.00,73.26257
451.00,73.27034
452.00,73.41797
453.00,73.55886
454.00,73.39493
455.00,73.65460
456.00,73.44183
457.00,73.71635
458.00,73.74767
459.00,73.79492
460.00,73.76539
461.00,73.85490
462.00,73.89862
463.00,73.87016
464.00,73.78663
465.00,73.83423
466.00,73.96576
467.00,73.90911
468.00,73.91226
469.00,73.93071
470.00,73.71520
471.00,73.79131
472.00,73.70141
473.00,73.86323
474.00,73.60036
475.00,73.73827
476.00,73.76872
477.00,73.76287
478.00,73.56500
479.00,73.51133
480.00,73.46913
481.00,73.40061
482.00,73.41044
483.00,73.58621
484.00,73.43214
485.00,73.34425
486.00,73.28357
487.00,73.31970
488.00,73.11110
489.00,73.09756
490.00,73.18165
491.00,72.97552
492.00,73.08798
493.00,72.97604
494.00,72.98058
495.00,72.90096
496.00,72.80739
497.00,72.79475
498.00,72.70587
499.00,72.74071
500.00,72.67917
501.00,72.60307
502.00,72.61235
503.00,72.66854
504.00,72.59654
505.00,72.59517
506.00,72.64795
507.00,72.58970
508.00,72.46872
509.00,72.60650
510.00,72.56515
511.00,72.49494
512.00,72.56990
513.00,72.58767
514.00,72.56153
515.00,72.64416
516.00,72.58391
517.00,72.60284
518.00,72.64912
519.00,72.79269
520.00,72.75269
521.00,72.71720
522.00,73.09641
523.00,72.76661
524.00,72.94132
525.00,72.83310
526.00,72.97840
527.00,72.96439
528.00,73.04766
529.00,73.19652
530.00,73.15988
531.00,73.23267
532.00,73.27045
533.00,73.33554
534.00,73.43103
535.00,73.53914
536.00,73.37556
537.00,73.44192
538.00,73.46200
539.00,73.72605
540.00,73.71164
541.00,73.70836
542.00,73.75495
543.00,73.93445
544.00,73.97152
545.00,73.96052
546.00,74.09125
547.00,74.12915
548.00,74.19738
549.00,74.19866
550.00,74.27304
551.00,74.41458
552.00,74.34129
553.00,74.47772
554.00,74.47078
555.00,74.59262
556.00,74.66848
557.00,74.68889
558.00,74.67294
559.00,74.69395
560.00,74.82439
561.00,74.78870
562.00,74.86428
563.00,74.79347
564.00,74.79801
565.00,74.91652
566.00,74.91987
567.00,74.94490
568.00,74.93855
569.00,74.99622
570.00,75.04327
571.00,75.10303
572.00,75.04774
573.00,75.03750
574.00,75.17601
575.00,75.16004
576.00,75.11781
577.00,75.22333
578.00,75.09771
579.00,75.14297
580.00,75.04745
581.00,74.88762
582.00,75.16726
583.00,75.09698
584.00,75.04317
585.00,75.06289
586.00,75.19428
587.00,75.07522
588.00,74.97166
589.00,74.95555
590.00,74.87703
591.00,74.87223
592.00,74.90611
593.00,74.90214
594.00,74.76609
595.00,74.90194
596.00,74.77778
597.00,74.78114
598.00,74.71546
599.00,74.66590
600.00,74.73819
601.00,74.71918
602.00,74.69512
603.00,74.61212
604.00,74.49294
605.00,74.48109
606.00,74.52433
607.00,74.46765
608.00,74.38994
609.00,74.41537
610.00,74.31505
611.00,74.27174
612.00,74.27299
613.00,74.18615
614.00,74.28681
615.00,74.24613
616.00,74.13878
617.00,74.12530
618.00,74.17505
619.00,74.01343
620.00,74.20166
621.00,73.84019
622.00,73.92287
623.00,73.96452
624.00,73.91346
625.00,73.88629
626.00,73.82880
627.00,73.80444
628.00,73.82878
629.00,73.66834
630.00,73.78873
631.00,73.67905
632.00,73.75284
633.00,73.74052
634.00,73.71682
635.00,73.74855
636.00,73.68496
637.00,73.71224
638.00,73.64945
639.00,73.63428
640.00,73.78613
641.00,73.60815
642.00,73.73607
643.00,73.59949
644.00,73.46151
645.00,73.68881
646.00,73.65146
647.00,73.67870
648.00,73.75169
649.00,73.57431
650.00,73.60494
651.00,73.78504
652.00,73.63631
653.00,73.65720
654.00,73.59691
655.00,73.65849
656.00,73.62865
657.00,73.70483
658.00,73.70903
659.00,73.65636
660.00,73.70111
661.00,73.83316
662.00,73.80786
663.00,73.64018
664.00,73.83611
665.00,73.74370
666.00,74.12843
667.00,73.90818
668.00,73.78325
669.00,73.85996
670.00,74.06406
671.00,74.03530
672.00,73.93223
673.00,74.14395
674.00,74.15676
675.00,74.37471
676.00,74.16210
677.00,74.31793
678.00,74.17057
679.00,74.26045
680.00,74.14395
681.00,74.62566
682.00,74.41285
683.00,74.50044
684.00,74.43573
685.00,74.57714
686.00,74.53602
687.00,74.81949
688.00,74.78412
689.00,74.57294
690.00,74.80041
691.00,74.90196
692.00,74.97995
693.00,74.68376
694.00,74.87393
695.00,74.93470
696.00,74.87517
697.00,74.98409
698.00,75.14248
699.00,74.99014
700.00,74.97041
701.00,75.17450
702.00,75.27722
703.00,75.34096
704.00,75.44701
705.00,75.55299
706.00,75.39628
707.00,75.33714
708.00,75.49198
709.00,75.61449
710.00,75.80893
711.00,75.57442
712.00,75.61046
713.00,75.69086
714.00,75.74348
715.00,75.63848
716.00,75.99761
717.00,75.97412
718.00,75.71820
719.00,75.71759
720.00,75.73537
721.00,76.21891
722.00,75.90734
723.00,75.98041
724.00,76.03251
725.00,76.38557
726.00,76.39700
727.00,76.56845
728.00,76.13533
729.00,76.08768
730.00,76.64873
731.00,76.96273
732.00,76.33021
733.00,76.57499
734.00,76.56651
735.00,76.58476
736.00,76.62978
737.00,76.51122
738.00,76.52189
739.00,76.75443
740.00,76.72759
741.00,77.03168
742.00,76.64790
743.00,77.03590
744.00,76.99682
745.00,76.29555
746.00,77.02141
747.00,76.64050
748.00,76.70906
749.00,76.66396
750.00,76.63934
751.00,76.85608
752.00,76.89411
753.00,76.90048
754.00,76.51885
755.00,76.52819
756.00,77.28472
757.00,77.14644
758.00,77.14717
759.00,76.88774
760.00,76.79651
761.00,76.87432
762.00,77.12432
763.00,76.61072
764.00,77.61314
765.00,77.04659
766.00,76.69123
767.00,77.10808
768.00,76.63673
769.00,77.20748
770.00,76.85980
771.00,77.00772
772.00,77.09997
773.00,76.76362
774.00,77.26986
775.00,77.30508
776.00,77.17885
777.00,76.95826
778.00,76.91941
779.00,76.99826
780.00,76.57259
781.00,76.94139
782.00,76.99918
783.00,76.29263
784.00,76.71947
785.00,76.76283
786.00,76.51981
787.00,76.73916
788.00,77.10309
789.00,76.60539
790.00,76.73199
791.00,76.56630
792.00,76.13091
793.00,76.82899
794.00,76.44814
795.00,76.66159
796.00,76.66103
797.00,76.70441
798.00,76.74132
799.00,76.93331
800.00,76.18145