"TransmitSampleBVSlow070622 - RawData"
"Wavelength nm.","T%"
190.00,1.80989
191.00,1.39589
192.00,0.80358
193.00,0.70603
194.00,0.50864
195.00,0.44295
196.00,0.37385
197.00,0.35244
198.00,0.34747
199.00,0.20652
200.00,0.33329
201.00,0.30100
202.00,0.26938
203.00,0.23857
204.00,0.23527
205.00,0.25548
206.00,0.23376
207.00,0.21117
208.00,0.18204
209.00,0.16816
210.00,0.18642
211.00,0.19361
212.00,0.16689
213.00,0.20940
214.00,0.18615
215.00,0.17945
216.00,0.19228
217.00,0.18070
218.00,0.17879
219.00,0.16775
220.00,0.19294
221.00,0.18818
222.00,0.18570
223.00,0.19682
224.00,0.18757
225.00,0.19796
226.00,0.20043
227.00,0.19705
228.00,0.18653
229.00,0.19619
230.00,0.20910
231.00,0.20826
232.00,0.22291
233.00,0.24275
234.00,0.26389
235.00,0.28859
236.00,0.31154
237.00,0.35109
238.00,0.41348
239.00,0.51392
240.00,0.60627
241.00,0.78592
242.00,0.99676
243.00,1.28051
244.00,1.65892
245.00,2.13352
246.00,2.68786
247.00,3.34620
248.00,4.12752
249.00,5.03313
250.00,6.13891
251.00,7.47465
252.00,9.03942
253.00,10.96214
254.00,13.17812
255.00,15.73882
256.00,18.56584
257.00,21.54919
258.00,24.60776
259.00,27.59936
260.00,30.53761
261.00,33.45769
262.00,36.20074
263.00,38.67761
264.00,40.97730
265.00,42.96591
266.00,44.79405
267.00,46.15278
268.00,47.36074
269.00,48.24953
270.00,48.89256
271.00,49.43792
272.00,49.71000
273.00,50.02128
274.00,50.33917
275.00,50.62925
276.00,51.05763
277.00,51.52584
278.00,52.02498
279.00,52.66814
280.00,53.17373
281.00,53.82997
282.00,54.41905
283.00,54.80372
284.00,55.30774
285.00,55.71116
286.00,55.98999
287.00,56.15680
288.00,56.25283
289.00,56.29997
290.00,56.23269
291.00,56.05442
292.00,55.94858
293.00,55.88950
294.00,55.76586
295.00,55.64011
296.00,55.57913
297.00,55.70149
298.00,55.78147
299.00,55.95360
300.00,56.14566
301.00,56.46892
302.00,56.81275
303.00,57.06744
304.00,57.48734
305.00,57.75892
306.00,58.04386
307.00,58.34047
308.00,58.55137
309.00,58.65188
310.00,58.84650
311.00,58.88280
312.00,58.91232
313.00,58.94656
314.00,58.84991
315.00,58.70087
316.00,58.55115
317.00,58.36697
318.00,58.23417
319.00,58.03766
320.00,57.89555
321.00,57.59786
322.00,57.46431
323.00,57.33685
324.00,57.36203
325.00,57.26174
326.00,57.45004
327.00,57.39087
328.00,57.47220
329.00,57.69708
330.00,57.85652
331.00,58.07837
332.00,58.33325
333.00,58.53366
334.00,58.78538
335.00,58.94573
336.00,59.18468
337.00,59.48977
338.00,59.64438
339.00,59.81808
340.00,59.91867
341.00,60.13309
342.00,60.12259
343.00,60.27523
344.00,60.25415
345.00,60.28578
346.00,60.21575
347.00,60.17980
348.00,60.05329
349.00,59.90092
350.00,59.72627
351.00,59.58562
352.00,59.39763
353.00,59.26118
354.00,59.07144
355.00,58.93771
356.00,58.80995
357.00,58.70099
358.00,58.50117
359.00,58.46198
360.00,58.33585
361.00,58.34231
362.00,58.26496
363.00,58.23368
364.00,58.25265
365.00,58.32232
366.00,58.37201
367.00,58.47106
368.00,58.60640
369.00,58.70999
370.00,58.92968
371.00,59.04375
372.00,59.33188
373.00,59.51379
374.00,59.71330
375.00,59.86255
376.00,60.08451
377.00,60.24508
378.00,60.40295
379.00,60.59808
380.00,60.67814
381.00,60.88421
382.00,60.95844
383.00,61.08226
384.00,61.19841
385.00,61.21019
386.00,61.25339
387.00,61.29475
388.00,61.30123
389.00,61.27152
390.00,61.24562
391.00,61.18416
392.00,61.13787
393.00,61.01069
394.00,60.90387
395.00,60.81488
396.00,60.65283
397.00,60.54925
398.00,60.40079
399.00,60.30658
400.00,60.12690
401.00,60.02612
402.00,59.88933
403.00,59.76298
404.00,59.65428
405.00,59.54628
406.00,59.46393
407.00,59.36121
408.00,59.31051
409.00,59.27349
410.00,59.20076
411.00,59.16587
412.00,59.15834
413.00,59.14345
414.00,59.15096
415.00,59.16364
416.00,59.20612
417.00,59.26875
418.00,59.31439
419.00,59.39270
420.00,59.51827
421.00,59.61594
422.00,59.72091
423.00,59.85151
424.00,59.96101
425.00,60.10990
426.00,60.24596
427.00,60.38789
428.00,60.54177
429.00,60.70122
430.00,60.86765
431.00,60.96442
432.00,61.09570
433.00,61.24741
434.00,61.38054
435.00,61.50777
436.00,61.63486
437.00,61.74163
438.00,61.85869
439.00,61.95028
440.00,62.07704
441.00,62.11947
442.00,62.19714
443.00,62.24437
444.00,62.28145
445.00,62.34294
446.00,62.34858
447.00,62.32014
448.00,62.30887
449.00,62.34277
450.00,62.27317
451.00,62.25715
452.00,62.20664
453.00,62.13830
454.00,62.08090
455.00,62.04523
456.00,61.93175
457.00,61.85639
458.00,61.77002
459.00,61.69580
460.00,61.60539
461.00,61.50717
462.00,61.40299
463.00,61.28082
464.00,61.20312
465.00,61.11418
466.00,60.99094
467.00,60.88339
468.00,60.82398
469.00,60.71473
470.00,60.61616
471.00,60.54395
472.00,60.45090
473.00,60.38814
474.00,60.35109
475.00,60.25371
476.00,60.23869
477.00,60.19722
478.00,60.17266
479.00,60.12377
480.00,60.12933
481.00,60.11198
482.00,60.06609
483.00,60.11963
484.00,60.12020
485.00,60.13116
486.00,60.15422
487.00,60.18748
488.00,60.23376
489.00,60.28968
490.00,60.35402
491.00,60.38710
492.00,60.46253
493.00,60.54389
494.00,60.60295
495.00,60.69362
496.00,60.76708
497.00,60.86352
498.00,60.95772
499.00,61.05145
500.00,61.14033
501.00,61.26586
502.00,61.36647
503.00,61.46987
504.00,61.58727
505.00,61.69464
506.00,61.81692
507.00,61.92272
508.00,62.02903
509.00,62.14972
510.00,62.26289
511.00,62.37760
512.00,62.48658
513.00,62.56826
514.00,62.65222
515.00,62.76546
516.00,62.85297
517.00,62.96154
518.00,63.01987
519.00,63.08222
520.00,63.14953
521.00,63.26129
522.00,63.30041
523.00,63.34323
524.00,63.38589
525.00,63.41763
526.00,63.48556
527.00,63.54451
528.00,63.57446
529.00,63.59047
530.00,63.61609
531.00,63.61923
532.00,63.61971
533.00,63.64445
534.00,63.62960
535.00,63.63847
536.00,63.59427
537.00,63.58241
538.00,63.54284
539.00,63.51456
540.00,63.49335
541.00,63.41822
542.00,63.39710
543.00,63.34183
544.00,63.33048
545.00,63.25655
546.00,63.22648
547.00,63.13748
548.00,63.09916
549.00,63.04955
550.00,62.97832
551.00,62.89578
552.00,62.86110
553.00,62.76386
554.00,62.69559
555.00,62.63247
556.00,62.57738
557.00,62.51453
558.00,62.43594
559.00,62.38520
560.00,62.29981
561.00,62.25212
562.00,62.17594
563.00,62.13645
564.00,62.03081
565.00,61.97742
566.00,61.94935
567.00,61.88256
568.00,61.83081
569.00,61.77768
570.00,61.75879
571.00,61.69811
572.00,61.66759
573.00,61.62155
574.00,61.59034
575.00,61.55431
576.00,61.54147
577.00,61.48565
578.00,61.47243
579.00,61.45191
580.00,61.43009
581.00,61.42973
582.00,61.41833
583.00,61.43705
584.00,61.40959
585.00,61.40834
586.00,61.44776
587.00,61.45792
588.00,61.42374
589.00,61.46590
590.00,61.49324
591.00,61.50526
592.00,61.56557
593.00,61.58719
594.00,61.62242
595.00,61.66437
596.00,61.69279
597.00,61.75380
598.00,61.78312
599.00,61.82028
600.00,61.87317
601.00,61.93328
602.00,62.00818
603.00,62.05716
604.00,62.12353
605.00,62.19036
606.00,62.26643
607.00,62.29799
608.00,62.38257
609.00,62.44199
610.00,62.51839
611.00,62.58841
612.00,62.66606
613.00,62.71560
614.00,62.80422
615.00,62.88998
616.00,62.97694
617.00,63.03215
618.00,63.12381
619.00,63.18703
620.00,63.27887
621.00,63.36749
622.00,63.45245
623.00,63.50473
624.00,63.60640
625.00,63.66684
626.00,63.72240
627.00,63.82308
628.00,63.89589
629.00,63.93903
630.00,64.01074
631.00,64.10412
632.00,64.16084
633.00,64.23382
634.00,64.31858
635.00,64.34834
636.00,64.43048
637.00,64.51000
638.00,64.58640
639.00,64.62597
640.00,64.69475
641.00,64.76789
642.00,64.78068
643.00,64.85370
644.00,64.87896
645.00,64.93532
646.00,64.97440
647.00,65.00023
648.00,65.10570
649.00,65.11647
650.00,65.14889
651.00,65.15964
652.00,65.19858
653.00,65.22973
654.00,65.24630
655.00,65.27103
656.00,65.28195
657.00,65.33853
658.00,65.33232
659.00,65.34556
660.00,65.37037
661.00,65.35861
662.00,65.36994
663.00,65.36686
664.00,65.35427
665.00,65.34326
666.00,65.36721
667.00,65.35736
668.00,65.38476
669.00,65.35460
670.00,65.32595
671.00,65.33003
672.00,65.29362
673.00,65.26152
674.00,65.24811
675.00,65.25267
676.00,65.22604
677.00,65.22639
678.00,65.16370
679.00,65.17727
680.00,65.11541
681.00,65.11742
682.00,65.11581
683.00,65.05437
684.00,64.99708
685.00,64.96738
686.00,64.95116
687.00,64.88796
688.00,64.85981
689.00,64.82306
690.00,64.79595
691.00,64.76076
692.00,64.74587
693.00,64.70310
694.00,64.62700
695.00,64.57708
696.00,64.55137
697.00,64.51769
698.00,64.52018
699.00,64.46119
700.00,64.41255
701.00,64.41139
702.00,64.32267
703.00,64.32149
704.00,64.24013
705.00,64.21504
706.00,64.16786
707.00,64.11346
708.00,64.10221
709.00,64.06914
710.00,63.99791
711.00,64.02876
712.00,63.97792
713.00,63.89602
714.00,63.84306
715.00,63.86291
716.00,63.84100
717.00,63.82337
718.00,63.79068
719.00,63.82930
720.00,63.75965
721.00,63.75356
722.00,63.71595
723.00,63.59064
724.00,63.66251
725.00,63.61725
726.00,63.52737
727.00,63.54283
728.00,63.59410
729.00,63.51147
730.00,63.52572
731.00,63.44019
732.00,63.48123
733.00,63.48200
734.00,63.54745
735.00,63.52861
736.00,63.48225
737.00,63.50937
738.00,63.49967
739.00,63.45773
740.00,63.44838
741.00,63.46645
742.00,63.45790
743.00,63.42790
744.00,63.41265
745.00,63.53122
746.00,63.43849
747.00,63.44484
748.00,63.57731
749.00,63.49938
750.00,63.50585
751.00,63.47802
752.00,63.58503
753.00,63.57770
754.00,63.60243
755.00,63.53021
756.00,63.61669
757.00,63.63773
758.00,63.66175
759.00,63.67133
760.00,63.70091
761.00,63.71151
762.00,63.67024
763.00,63.76793
764.00,63.85614
765.00,63.87702
766.00,63.81896
767.00,63.87776
768.00,63.98795
769.00,63.92771
770.00,63.99708
771.00,64.00501
772.00,64.08378
773.00,64.04749
774.00,64.23433
775.00,64.16012
776.00,64.11731
777.00,64.14452
778.00,64.32854
779.00,64.26447
780.00,64.45064
781.00,64.47101
782.00,64.41798
783.00,64.48377
784.00,64.52878
785.00,64.52806
786.00,64.58629
787.00,64.63795
788.00,64.69499
789.00,64.89934
790.00,64.73321
791.00,64.84497
792.00,64.89116
793.00,64.91497
794.00,65.03622
795.00,64.91460
796.00,65.02796
797.00,65.09801
798.00,65.19144
799.00,65.26181
800.00,65.31302
801.00,65.39114
802.00,65.39211
803.00,65.36732
804.00,65.54096
805.00,65.59582
806.00,65.55372
807.00,65.55154
808.00,65.70048
809.00,65.76029
810.00,65.71338
811.00,65.88927
812.00,65.82486
813.00,65.98675
814.00,66.02182
815.00,66.03206
816.00,66.25056
817.00,66.21789
818.00,66.20671
819.00,66.15543
820.00,66.29798
821.00,66.20974
822.00,66.31416
823.00,66.28194
824.00,66.47780
825.00,66.41865
826.00,66.56749
827.00,66.60944
828.00,66.72562
829.00,66.62040
830.00,66.65604
831.00,66.83414
832.00,66.75227
833.00,66.83235
834.00,66.86243
835.00,66.97013
836.00,66.93417
837.00,67.08761
838.00,67.07880
839.00,67.14092
840.00,67.20445
841.00,67.06253
842.00,67.02971
843.00,67.12886
844.00,67.06052
845.00,67.37577
846.00,67.51437
847.00,67.14044
848.00,67.55054
849.00,67.36033
850.00,67.09425
851.00,67.79320
852.00,67.28479
853.00,67.59455
854.00,67.91540
855.00,67.92213
856.00,67.74843
857.00,67.95731
858.00,67.52105
859.00,68.27197
860.00,67.48019
861.00,67.57843
862.00,68.35180
863.00,67.27132
864.00,68.06127
865.00,67.02431
866.00,67.19059
867.00,67.26981
868.00,67.35221
869.00,67.41725
870.00,68.33801
871.00,67.60898
872.00,68.25488
873.00,65.96196
874.00,68.07196
875.00,67.72131
876.00,68.17490
877.00,67.49783
878.00,66.76533
879.00,66.79032
880.00,65.34232
881.00,68.90446
882.00,68.60577
883.00,67.41342
884.00,69.35929
885.00,66.94530
886.00,69.51588
887.00,66.63510
888.00,68.35058
889.00,66.77940
890.00,68.84061
891.00,68.23818
892.00,66.29255
893.00,66.52909
894.00,66.48491
895.00,70.30846
896.00,70.12329
897.00,68.91354
898.00,67.70448
899.00,69.85871
900.00,66.65823
