"MN1906VSlowTrans - RawData"
"Wavelength nm.","T%"
190.00,2.38006
191.00,1.53068
192.00,0.86159
193.00,0.71211
194.00,0.54679
195.00,0.42480
196.00,0.37910
197.00,0.29685
198.00,0.28948
199.00,0.28539
200.00,0.26999
201.00,0.18076
202.00,0.20850
203.00,0.21155
204.00,0.17812
205.00,0.16200
206.00,0.14663
207.00,0.12666
208.00,0.11665
209.00,0.11676
210.00,0.11951
211.00,0.10771
212.00,0.11519
213.00,0.09144
214.00,0.09397
215.00,0.09473
216.00,0.09693
217.00,0.09348
218.00,0.08300
219.00,0.09011
220.00,0.07784
221.00,0.08737
222.00,0.08838
223.00,0.08984
224.00,0.08575
225.00,0.08881
226.00,0.08920
227.00,0.09696
228.00,0.09179
229.00,0.09145
230.00,0.09912
231.00,0.09410
232.00,0.08654
233.00,0.10491
234.00,0.11262
235.00,0.19540
236.00,0.41233
237.00,0.99403
238.00,2.30815
239.00,4.77468
240.00,8.37699
241.00,13.64168
242.00,19.52815
243.00,25.73734
244.00,31.39364
245.00,36.23260
246.00,40.14438
247.00,42.93472
248.00,45.42940
249.00,47.17793
250.00,48.71356
251.00,49.74846
252.00,50.63216
253.00,51.58876
254.00,52.39292
255.00,53.05272
256.00,53.69198
257.00,54.35600
258.00,54.95103
259.00,55.32088
260.00,55.80281
261.00,56.32349
262.00,56.67138
263.00,56.98365
264.00,57.37228
265.00,57.62725
266.00,57.87418
267.00,58.08421
268.00,58.16976
269.00,58.34858
270.00,58.47429
271.00,58.47601
272.00,58.75725
273.00,58.80020
274.00,59.08461
275.00,58.97089
276.00,59.13132
277.00,59.18671
278.00,59.27848
279.00,59.39776
280.00,59.47624
281.00,59.67407
282.00,59.62233
283.00,59.84280
284.00,59.85378
285.00,60.02873
286.00,60.13058
287.00,60.13879
288.00,60.31108
289.00,60.49286
290.00,60.53402
291.00,60.63271
292.00,60.77129
293.00,60.82729
294.00,60.94289
295.00,61.04147
296.00,61.08249
297.00,61.18757
298.00,61.26521
299.00,61.28818
300.00,61.42021
301.00,61.42114
302.00,61.48846
303.00,61.47478
304.00,61.62987
305.00,61.70608
306.00,61.81092
307.00,61.95415
308.00,61.97494
309.00,61.92650
310.00,61.94917
311.00,61.96904
312.00,62.05664
313.00,62.10434
314.00,62.23916
315.00,62.24467
316.00,62.18187
317.00,62.26999
318.00,62.28166
319.00,62.51470
320.00,62.39485
321.00,62.53769
322.00,62.56996
323.00,62.56135
324.00,62.83914
325.00,62.96558
326.00,62.89601
327.00,63.05152
328.00,62.98857
329.00,63.12103
330.00,63.19902
331.00,63.21347
332.00,63.11516
333.00,63.21175
334.00,63.11240
335.00,63.29648
336.00,63.37376
337.00,63.44736
338.00,63.42901
339.00,63.41246
340.00,63.46202
341.00,63.52891
342.00,63.50718
343.00,63.59087
344.00,63.58566
345.00,63.59911
346.00,63.73321
347.00,63.71128
348.00,63.70117
349.00,63.74028
350.00,63.72765
351.00,63.78363
352.00,63.85661
353.00,63.90582
354.00,63.89096
355.00,63.88578
356.00,63.96900
357.00,63.98584
358.00,63.99527
359.00,64.07723
360.00,64.05752
361.00,64.09319
362.00,64.11964
363.00,64.11490
364.00,64.13579
365.00,64.28379
366.00,64.20793
367.00,64.23839
368.00,64.28236
369.00,64.40886
370.00,64.51580
371.00,64.65730
372.00,64.95789
373.00,65.04843
374.00,65.05701
375.00,65.17351
376.00,65.11402
377.00,65.21909
378.00,65.20493
379.00,65.27317
380.00,65.28648
381.00,65.35086
382.00,65.38208
383.00,65.43565
384.00,65.37960
385.00,65.46947
386.00,65.46150
387.00,65.60423
388.00,65.53972
389.00,65.65117
390.00,65.63404
391.00,65.69142
392.00,65.75767
393.00,65.75657
394.00,65.83450
395.00,65.81152
396.00,65.82758
397.00,65.84319
398.00,65.94468
399.00,65.96372
400.00,65.98566
401.00,66.04544
402.00,66.00219
403.00,66.11096
404.00,66.16709
405.00,66.11689
406.00,66.16328
407.00,66.13920
408.00,66.20149
409.00,66.22665
410.00,66.23239
411.00,66.24748
412.00,66.33107
413.00,66.32593
414.00,66.31999
415.00,66.35159
416.00,66.41428
417.00,66.39805
418.00,66.41083
419.00,66.46522
420.00,66.45303
421.00,66.44034
422.00,66.48763
423.00,66.48382
424.00,66.48171
425.00,66.59168
426.00,66.55917
427.00,66.56296
428.00,66.62208
429.00,66.63452
430.00,66.64755
431.00,66.65429
432.00,66.67219
433.00,66.64565
434.00,66.69443
435.00,66.73418
436.00,66.78631
437.00,66.80893
438.00,66.77637
439.00,66.78522
440.00,66.85045
441.00,66.81609
442.00,66.86724
443.00,66.85780
444.00,66.85050
445.00,66.93197
446.00,66.95381
447.00,66.92687
448.00,66.94527
449.00,66.93140
450.00,66.96454
451.00,66.96949
452.00,66.97347
453.00,66.98105
454.00,67.01107
455.00,67.06870
456.00,67.07821
457.00,67.12042
458.00,67.12876
459.00,67.12205
460.00,67.15420
461.00,67.11299
462.00,67.12722
463.00,67.13970
464.00,67.15549
465.00,67.17254
466.00,67.16623
467.00,67.22479
468.00,67.30888
469.00,67.28567
470.00,67.29960
471.00,67.29741
472.00,67.33414
473.00,67.32172
474.00,67.34238
475.00,67.34436
476.00,67.39836
477.00,67.40553
478.00,67.37978
479.00,67.42240
480.00,67.45230
481.00,67.44955
482.00,67.46995
483.00,67.48063
484.00,67.48538
485.00,67.49490
486.00,67.51881
487.00,67.53411
488.00,67.58824
489.00,67.59872
490.00,67.61100
491.00,67.65199
492.00,67.59035
493.00,67.66008
494.00,67.65077
495.00,67.69546
496.00,67.69083
497.00,67.69390
498.00,67.70027
499.00,67.74339
500.00,67.73150
501.00,67.73680
502.00,67.73594
503.00,67.76379
504.00,67.75627
505.00,67.77070
506.00,67.84019
507.00,67.85262
508.00,67.85833
509.00,67.84305
510.00,67.87176
511.00,67.89674
512.00,67.93558
513.00,67.96693
514.00,67.95224
515.00,67.98268
516.00,68.03439
517.00,67.95188
518.00,67.97312
519.00,68.00793
520.00,67.97596
521.00,67.97879
522.00,67.99862
523.00,67.98212
524.00,67.97007
525.00,68.00471
526.00,68.00303
527.00,68.03377
528.00,68.01522
529.00,68.08349
530.00,68.11827
531.00,68.12410
532.00,68.16328
533.00,68.23551
534.00,68.20972
535.00,68.23831
536.00,68.25244
537.00,68.27427
538.00,68.32786
539.00,68.30928
540.00,68.32590
541.00,68.31205
542.00,68.32402
543.00,68.26290
544.00,68.32371
545.00,68.28237
546.00,68.31471
547.00,68.31633
548.00,68.30229
549.00,68.30918
550.00,68.31362
551.00,68.34573
552.00,68.38114
553.00,68.34583
554.00,68.35554
555.00,68.41597
556.00,68.45954
557.00,68.46385
558.00,68.45996
559.00,68.49167
560.00,68.58926
561.00,68.58798
562.00,68.61688
563.00,68.62881
564.00,68.63531
565.00,68.62791
566.00,68.67305
567.00,68.69262
568.00,68.66519
569.00,68.64441
570.00,68.70144
571.00,68.69888
572.00,68.66530
573.00,68.65790
574.00,68.63484
575.00,68.63720
576.00,68.67548
577.00,68.66768
578.00,68.67170
579.00,68.69487
580.00,68.68235
581.00,68.71760
582.00,68.70593
583.00,68.73835
584.00,68.75774
585.00,68.79814
586.00,68.81158
587.00,68.88114
588.00,68.90227
589.00,68.94216
590.00,68.96468
591.00,69.01181
592.00,69.02281
593.00,69.03583
594.00,69.06833
595.00,69.09373
596.00,69.06095
597.00,69.06310
598.00,69.05444
599.00,69.07413
600.00,69.04466
601.00,69.04193
602.00,69.06083
603.00,69.04044
604.00,69.01070
605.00,69.00799
606.00,69.01661
607.00,69.01570
608.00,69.00394
609.00,69.02252
610.00,68.99447
611.00,69.01380
612.00,69.02727
613.00,69.07468
614.00,69.07234
615.00,69.10035
616.00,69.18156
617.00,69.15054
618.00,69.19261
619.00,69.21959
620.00,69.21270
621.00,69.28589
622.00,69.28582
623.00,69.33447
624.00,69.36233
625.00,69.39421
626.00,69.38778
627.00,69.47601
628.00,69.44166
629.00,69.43965
630.00,69.40725
631.00,69.45370
632.00,69.43190
633.00,69.48293
634.00,69.45201
635.00,69.46342
636.00,69.41322
637.00,69.43240
638.00,69.44803
639.00,69.41727
640.00,69.41537
641.00,69.40648
642.00,69.39589
643.00,69.40943
644.00,69.43176
645.00,69.42653
646.00,69.42593
647.00,69.44762
648.00,69.44051
649.00,69.45841
650.00,69.50765
651.00,69.46458
652.00,69.53961
653.00,69.52150
654.00,69.58035
655.00,69.60284
656.00,69.62183
657.00,69.65481
658.00,69.66656
659.00,69.72725
660.00,69.75264
661.00,69.74522
662.00,69.72342
663.00,69.77841
664.00,69.76627
665.00,69.81588
666.00,69.87670
667.00,69.79857
668.00,69.85474
669.00,69.85240
670.00,69.85819
671.00,69.88580
672.00,69.84775
673.00,69.89290
674.00,69.87721
675.00,69.91237
676.00,69.88149
677.00,69.91627
678.00,69.89267
679.00,69.78464
680.00,69.89597
681.00,69.91389
682.00,69.87553
683.00,69.86354
684.00,69.90952
685.00,69.87185
686.00,69.92003
687.00,69.90677
688.00,69.90337
689.00,69.89217
690.00,69.95174
691.00,69.93718
692.00,69.94398
693.00,70.03329
694.00,70.05520
695.00,69.97212
696.00,69.96305
697.00,70.06502
698.00,70.06229
699.00,70.09578
700.00,70.17028
701.00,70.21325
702.00,70.12282
703.00,70.18408
704.00,70.22885
705.00,70.20846
706.00,70.31019
707.00,70.26975
708.00,70.25395
709.00,70.26166
710.00,70.28517
711.00,70.31049
712.00,70.27848
713.00,70.30084
714.00,70.25927
715.00,70.36859
716.00,70.34010
717.00,70.33795
718.00,70.31246
719.00,70.40121
720.00,70.27158
721.00,70.30414
722.00,70.36800
723.00,70.34290
724.00,70.34474
725.00,70.45331
726.00,70.35615
727.00,70.27192
728.00,70.38568
729.00,70.33084
730.00,70.39751
731.00,70.38628
732.00,70.51136
733.00,70.49460
734.00,70.37362
735.00,70.31288
736.00,70.39283
737.00,70.51176
738.00,70.54893
739.00,70.44498
740.00,70.55595
741.00,70.55844
742.00,70.45937
743.00,70.59420
744.00,70.63358
745.00,70.52391
746.00,70.63904
747.00,70.56593
748.00,70.65086
749.00,70.68022
750.00,70.70290
751.00,70.69110
752.00,70.58979
753.00,70.72918
754.00,70.70546
755.00,70.66628
756.00,70.66272
757.00,70.78415
758.00,70.78200
759.00,70.83715
760.00,70.72046
761.00,70.88798
762.00,70.88720
763.00,70.95379
764.00,70.82268
765.00,70.75599
766.00,70.91600
767.00,70.77594
768.00,70.91312
769.00,70.78218
770.00,70.86388
771.00,71.07112
772.00,70.82946
773.00,71.03063
774.00,70.91811
775.00,70.91590
776.00,71.01443
777.00,70.91225
778.00,70.89124
779.00,70.99888
780.00,70.85949
781.00,70.80901
782.00,70.87253
783.00,70.92314
784.00,71.04591
785.00,71.08523
786.00,70.94826
787.00,71.11362
788.00,70.96733
789.00,71.05317
790.00,71.07746
791.00,71.04523
792.00,71.21915
793.00,71.05099
794.00,70.91186
795.00,71.03365
796.00,71.18364
797.00,71.15982
798.00,71.34264
799.00,71.17274
800.00,71.09026
