"SamDStandard - RawData"
"Wavelength nm.","T%"
190.00,-0.52930
191.00,0.10306
192.00,2.71697
193.00,0.40385
194.00,0.94281
195.00,-0.27946
196.00,0.31744
197.00,-0.15961
198.00,0.11218
199.00,0.25841
200.00,0.25687
201.00,0.06596
202.00,0.05973
203.00,0.26346
204.00,0.05964
205.00,0.04177
206.00,0.08143
207.00,0.12290
208.00,0.15087
209.00,0.04501
210.00,0.16145
211.00,0.06587
212.00,0.18091
213.00,0.14209
214.00,0.18170
215.00,0.13926
216.00,0.13050
217.00,0.06130
218.00,0.11390
219.00,0.10939
220.00,0.14148
221.00,0.10640
222.00,0.10177
223.00,0.10264
224.00,0.07621
225.00,0.10378
226.00,0.09054
227.00,0.15408
228.00,0.08695
229.00,0.16667
230.00,0.11356
231.00,0.25102
232.00,0.22273
233.00,0.31592
234.00,0.41413
235.00,0.49919
236.00,0.61024
237.00,0.74685
238.00,0.94605
239.00,1.12267
240.00,1.33920
241.00,1.58259
242.00,1.83907
243.00,2.22118
244.00,2.58721
245.00,3.12446
246.00,3.74249
247.00,4.40286
248.00,5.12481
249.00,6.10939
250.00,7.39437
251.00,8.78633
252.00,10.59448
253.00,12.98618
254.00,15.66638
255.00,18.78089
256.00,22.36725
257.00,26.39763
258.00,30.33547
259.00,34.09193
260.00,37.84340
261.00,40.72318
262.00,42.92123
263.00,44.70221
264.00,46.22438
265.00,47.35222
266.00,48.81943
267.00,50.05772
268.00,51.50916
269.00,52.87623
270.00,54.06440
271.00,54.79255
272.00,55.89976
273.00,55.79414
274.00,55.94509
275.00,56.06392
276.00,55.36691
277.00,55.13796
278.00,54.75792
279.00,54.75824
280.00,54.71686
281.00,54.88356
282.00,54.96321
283.00,55.54824
284.00,56.51985
285.00,57.24822
286.00,58.10260
287.00,58.23072
288.00,59.07244
289.00,58.99815
290.00,59.66837
291.00,59.19961
292.00,59.33603
293.00,58.89158
294.00,58.69413
295.00,58.12367
296.00,57.93278
297.00,57.91759
298.00,57.39992
299.00,57.30019
300.00,57.15792
301.00,57.35183
302.00,57.25444
303.00,57.74952
304.00,58.05664
305.00,58.85581
306.00,59.08866
307.00,59.53859
308.00,60.15798
309.00,60.95351
310.00,60.78002
311.00,60.78604
312.00,61.27108
313.00,61.19785
314.00,60.87953
315.00,61.11839
316.00,61.10699
317.00,60.67411
318.00,60.47317
319.00,59.91815
320.00,59.48100
321.00,59.29160
322.00,59.49841
323.00,58.49039
324.00,58.59455
325.00,58.69565
326.00,58.66762
327.00,58.68285
328.00,58.56301
329.00,58.87508
330.00,59.17476
331.00,59.32406
332.00,59.67435
333.00,59.74585
334.00,60.48379
335.00,60.71715
336.00,60.85274
337.00,61.40572
338.00,61.61730
339.00,62.18259
340.00,62.00770
341.00,62.10505
342.00,62.29393
343.00,62.15913
344.00,62.15644
345.00,62.06813
346.00,61.74566
347.00,61.50801
348.00,61.47412
349.00,61.12313
350.00,60.92117
351.00,60.55996
352.00,60.25518
353.00,60.08922
354.00,59.89166
355.00,59.92981
356.00,59.64673
357.00,59.69710
358.00,59.44242
359.00,59.59136
360.00,59.64321
361.00,59.64500
362.00,59.79106
363.00,59.82267
364.00,60.15121
365.00,60.11619
366.00,60.40488
367.00,60.47561
368.00,61.01602
369.00,61.00810
370.00,61.66077
371.00,61.76358
372.00,61.95018
373.00,62.11742
374.00,62.12865
375.00,62.54035
376.00,62.48254
377.00,62.89860
378.00,62.77628
379.00,62.96583
380.00,62.75813
381.00,62.94727
382.00,62.80584
383.00,62.85708
384.00,62.37901
385.00,62.56273
386.00,62.30214
387.00,61.97085
388.00,61.81079
389.00,61.62723
390.00,61.62985
391.00,61.43430
392.00,61.20360
393.00,60.98204
394.00,60.71149
395.00,60.85697
396.00,60.60910
397.00,60.48899
398.00,60.21560
399.00,60.30824
400.00,60.31412
401.00,60.22247
402.00,60.26832
403.00,60.36502
404.00,60.38776
405.00,60.35842
406.00,60.47770
407.00,60.71610
408.00,60.74237
409.00,60.93193
410.00,61.08431
411.00,61.09183
412.00,61.30083
413.00,61.72732
414.00,61.76910
415.00,61.95456
416.00,62.29587
417.00,62.31941
418.00,62.44234
419.00,62.64541
420.00,62.90150
421.00,63.02370
422.00,63.03350
423.00,63.31004
424.00,63.40092
425.00,63.37809
426.00,63.54370
427.00,63.53441
428.00,63.55151
429.00,63.63653
430.00,63.55751
431.00,63.46511
432.00,63.43934
433.00,63.31077
434.00,63.16465
435.00,63.21657
436.00,63.12073
437.00,63.01792
438.00,62.90427
439.00,62.77984
440.00,62.77582
441.00,62.55566
442.00,62.44845
443.00,62.25532
444.00,62.03139
445.00,61.96731
446.00,61.83170
447.00,61.56682
448.00,61.50355
449.00,61.59965
450.00,61.28303
451.00,61.31033
452.00,61.26059
453.00,61.24877
454.00,61.15566
455.00,61.04476
456.00,61.07852
457.00,61.01835
458.00,60.99898
459.00,60.87140
460.00,60.97552
461.00,61.05496
462.00,61.04177
463.00,61.19996
464.00,61.14194
465.00,61.31501
466.00,61.35308
467.00,61.48927
468.00,61.44159
469.00,61.67732
470.00,61.77673
471.00,61.90310
472.00,62.12683
473.00,62.17907
474.00,62.37778
475.00,62.51546
476.00,62.55353
477.00,62.74493
478.00,62.94097
479.00,63.01572
480.00,63.07483
481.00,63.31861
482.00,63.40583
483.00,63.50645
484.00,63.63588
485.00,63.64481
486.00,63.81593
487.00,63.91169
488.00,64.02076
489.00,64.05476
490.00,64.20770
491.00,64.12855
492.00,64.23519
493.00,64.28697
494.00,64.22098
495.00,64.26255
496.00,64.40495
497.00,64.37584
498.00,64.37529
499.00,64.31087
500.00,64.26584
501.00,64.26764
502.00,64.21465
503.00,64.07983
504.00,64.02307
505.00,63.97675
506.00,64.00135
507.00,63.78825
508.00,63.72578
509.00,63.65196
510.00,63.64264
511.00,63.54927
512.00,63.42078
513.00,63.22452
514.00,63.24297
515.00,63.09535
516.00,62.99635
517.00,62.89166
518.00,62.75597
519.00,62.72043
520.00,62.57232
521.00,62.64471
522.00,62.50896
523.00,62.36797
524.00,62.37106
525.00,62.26011
526.00,62.23571
527.00,62.10392
528.00,62.08494
529.00,62.08135
530.00,62.08776
531.00,61.84564
532.00,61.97920
533.00,61.94856
534.00,61.97982
535.00,61.95486
536.00,61.98577
537.00,61.90506
538.00,61.98467
539.00,61.87630
540.00,61.89905
541.00,61.96948
542.00,61.99594
543.00,62.10783
544.00,62.11056
545.00,62.09002
546.00,62.18745
547.00,62.30288
548.00,62.21284
549.00,62.40439
550.00,62.47038
551.00,62.50114
552.00,62.63347
553.00,62.80625
554.00,62.73432
555.00,62.92160
556.00,63.03247
557.00,63.12276
558.00,63.15338
559.00,63.25361
560.00,63.34957
561.00,63.43867
562.00,63.77214
563.00,63.56567
564.00,63.82973
565.00,63.87189
566.00,63.83039
567.00,64.04433
568.00,64.12700
569.00,64.09720
570.00,64.34408
571.00,64.41631
572.00,64.59868
573.00,64.57807
574.00,64.79471
575.00,64.83019
576.00,64.79316
577.00,64.83931
578.00,64.93527
579.00,64.96314
580.00,65.07072
581.00,65.09054
582.00,65.27010
583.00,65.14217
584.00,65.18967
585.00,65.13107
586.00,65.18328
587.00,65.27115
588.00,65.33573
589.00,65.30495
590.00,65.39723
591.00,65.36320
592.00,65.41227
593.00,65.44161
594.00,65.46223
595.00,65.42444
596.00,65.42686
597.00,65.32997
598.00,65.36080
599.00,65.25043
600.00,65.19205
601.00,65.23160
602.00,65.20070
603.00,65.09087
604.00,65.15607
605.00,65.16084
606.00,65.02928
607.00,65.05494
608.00,64.84540
609.00,64.79506
610.00,64.80048
611.00,64.65690
612.00,64.62299
613.00,64.61242
614.00,64.64688
615.00,64.52695
616.00,64.38654
617.00,64.42060
618.00,64.35112
619.00,64.29332
620.00,64.23596
621.00,64.20506
622.00,64.06680
623.00,64.11383
624.00,63.95409
625.00,63.84350
626.00,63.87752
627.00,63.70391
628.00,63.66854
629.00,63.77347
630.00,63.59284
631.00,63.60472
632.00,63.51970
633.00,63.67160
634.00,63.49794
635.00,63.48201
636.00,63.43095
637.00,63.41186
638.00,63.31536
639.00,63.13154
640.00,63.27941
641.00,63.38468
642.00,63.27365
643.00,63.15041
644.00,63.21575
645.00,63.21854
646.00,63.21506
647.00,63.10084
648.00,63.10858
649.00,63.14364
650.00,63.21363
651.00,63.10997
652.00,63.23890
653.00,63.19788
654.00,63.18454
655.00,63.19599
656.00,63.15505
657.00,63.31053
658.00,63.38024
659.00,63.27898
660.00,63.37734
661.00,63.29559
662.00,63.52167
663.00,63.40106
664.00,63.47399
665.00,63.54510
666.00,63.31722
667.00,63.70713
668.00,63.80049
669.00,63.65270
670.00,63.80748
671.00,63.84296
672.00,64.04204
673.00,64.01771
674.00,63.98247
675.00,64.07310
676.00,64.15751
677.00,64.34608
678.00,64.35155
679.00,64.30816
680.00,64.40340
681.00,64.38457
682.00,64.46803
683.00,64.70360
684.00,64.62259
685.00,64.78410
686.00,64.87004
687.00,64.81738
688.00,64.72282
689.00,64.96941
690.00,64.95828
691.00,64.91930
692.00,65.33715
693.00,65.18961
694.00,65.30285
695.00,65.40515
696.00,65.42025
697.00,65.53122
698.00,65.27376
699.00,65.67265
700.00,65.62075
701.00,65.78178
702.00,65.72848
703.00,65.83821
704.00,65.98932
705.00,65.96829
706.00,65.93190
707.00,66.10925
708.00,66.18422
709.00,66.36927
710.00,66.21866
711.00,66.44105
712.00,66.27886
713.00,66.41684
714.00,66.48431
715.00,66.62070
716.00,66.66129
717.00,66.80887
718.00,66.63103
719.00,66.67787
720.00,66.91056
721.00,66.60168
722.00,66.85497
723.00,66.66937
724.00,66.71549
725.00,67.14467
726.00,66.98536
727.00,67.10484
728.00,67.12014
729.00,67.29110
730.00,66.73876
731.00,67.09420
732.00,66.86733
733.00,67.11235
734.00,67.00540
735.00,67.33293
736.00,67.05267
737.00,67.01424
738.00,67.04600
739.00,67.06402
740.00,66.99134
741.00,66.73863
742.00,66.90293
743.00,66.96594
744.00,66.94601
745.00,67.07329
746.00,66.77124
747.00,66.82845
748.00,67.10914
749.00,67.04916
750.00,67.12011
751.00,67.06444
752.00,66.83615
753.00,67.03168
754.00,67.11199
755.00,67.16333
756.00,66.95736
757.00,66.89301
758.00,67.13180
759.00,66.84052
760.00,67.13017
761.00,66.65034
762.00,66.75297
763.00,66.58512
764.00,66.70654
765.00,66.36759
766.00,66.26340
767.00,66.86061
768.00,66.34633
769.00,66.46475
770.00,66.50949
771.00,66.56218
772.00,66.71451
773.00,66.45243
774.00,66.27498
775.00,66.23270
776.00,66.25307
777.00,66.04034
778.00,65.90021
779.00,65.51214
780.00,66.05399
781.00,66.13472
782.00,65.68200
783.00,65.70867
784.00,66.20072
785.00,66.05419
786.00,66.48180
787.00,65.52289
788.00,66.12915
789.00,65.67277
790.00,65.96527
791.00,65.68640
792.00,66.03609
793.00,65.16436
794.00,65.36744
795.00,65.56743
796.00,65.42832
797.00,65.13163
798.00,65.63997
799.00,65.57789
800.00,65.92487
