"ItalyVslowResin - RawData"
"Wavelength nm.","T%"
200.00,0.59412
201.00,0.54612
202.00,0.54667
203.00,0.40171
204.00,0.48073
205.00,0.45536
206.00,0.44999
207.00,0.44079
208.00,0.43205
209.00,0.37527
210.00,0.35050
211.00,0.36185
212.00,0.33748
213.00,0.32323
214.00,0.34953
215.00,0.34692
216.00,0.33797
217.00,0.36738
218.00,0.32904
219.00,0.37312
220.00,0.34830
221.00,0.35126
222.00,0.36176
223.00,0.34790
224.00,0.36570
225.00,0.36851
226.00,0.35044
227.00,0.36726
228.00,0.36128
229.00,0.37355
230.00,0.37302
231.00,0.38658
232.00,0.39761
233.00,0.41742
234.00,0.43502
235.00,0.46090
236.00,0.47747
237.00,0.53632
238.00,0.57540
239.00,0.67287
240.00,0.74776
241.00,0.86888
242.00,1.03481
243.00,1.21515
244.00,1.52145
245.00,1.85893
246.00,2.26414
247.00,2.83219
248.00,3.46317
249.00,4.28389
250.00,5.27317
251.00,6.44057
252.00,7.83123
253.00,9.34959
254.00,11.09867
255.00,13.04142
256.00,15.06455
257.00,17.15213
258.00,19.43747
259.00,21.78874
260.00,24.26229
261.00,26.68850
262.00,29.20785
263.00,31.64494
264.00,33.81706
265.00,35.80258
266.00,37.39197
267.00,38.89884
268.00,39.88187
269.00,40.99520
270.00,41.87167
271.00,42.73465
272.00,43.50874
273.00,44.44414
274.00,45.54957
275.00,46.59781
276.00,47.54020
277.00,48.63212
278.00,49.62140
279.00,50.81493
280.00,51.71654
281.00,52.44531
282.00,53.07326
283.00,53.34187
284.00,53.68466
285.00,53.72382
286.00,53.80716
287.00,53.52936
288.00,53.46602
289.00,53.28739
290.00,52.97776
291.00,52.76510
292.00,52.63939
293.00,52.59988
294.00,52.62942
295.00,52.52482
296.00,52.79401
297.00,53.07239
298.00,53.23256
299.00,53.72372
300.00,54.17971
301.00,54.60232
302.00,55.14340
303.00,55.53648
304.00,56.05308
305.00,56.48048
306.00,56.70435
307.00,57.24790
308.00,57.41828
309.00,57.65233
310.00,57.49162
311.00,57.59720
312.00,57.63301
313.00,57.37634
314.00,57.30243
315.00,57.03804
316.00,56.71605
317.00,56.51764
318.00,56.29904
319.00,55.95136
320.00,55.73591
321.00,55.53232
322.00,55.12453
323.00,54.86414
324.00,54.78995
325.00,54.72373
326.00,54.52445
327.00,54.43256
328.00,54.71979
329.00,54.87389
330.00,54.99697
331.00,55.37447
332.00,55.42857
333.00,55.92316
334.00,55.97568
335.00,56.54305
336.00,56.78874
337.00,57.13204
338.00,57.52680
339.00,57.77511
340.00,58.01102
341.00,58.45881
342.00,58.51125
343.00,58.75806
344.00,59.01363
345.00,59.05844
346.00,59.34103
347.00,59.48107
348.00,59.34690
349.00,59.39372
350.00,59.45268
351.00,59.18269
352.00,59.10517
353.00,58.86917
354.00,58.89367
355.00,58.72155
356.00,58.41745
357.00,58.21859
358.00,57.91057
359.00,57.82208
360.00,57.66551
361.00,57.33849
362.00,57.05467
363.00,57.12974
364.00,56.88109
365.00,56.67222
366.00,56.57272
367.00,56.44280
368.00,56.59178
369.00,56.37156
370.00,56.37107
371.00,56.56378
372.00,56.49214
373.00,56.48737
374.00,56.69689
375.00,56.89819
376.00,56.91381
377.00,57.06323
378.00,57.28776
379.00,57.58362
380.00,57.76958
381.00,58.07894
382.00,58.19814
383.00,58.42286
384.00,58.69514
385.00,58.82923
386.00,59.09973
387.00,59.29641
388.00,59.65641
389.00,59.65875
390.00,60.02992
391.00,60.02769
392.00,60.31445
393.00,60.38535
394.00,60.57236
395.00,60.59874
396.00,60.64572
397.00,60.75183
398.00,60.83016
399.00,60.87040
400.00,60.81452
401.00,60.78018
402.00,60.77239
403.00,60.74171
404.00,60.65072
405.00,60.58615
406.00,60.48595
407.00,60.39787
408.00,60.20799
409.00,60.13016
410.00,59.99949
411.00,59.83589
412.00,59.74365
413.00,59.56958
414.00,59.47146
415.00,59.39664
416.00,59.24152
417.00,59.17089
418.00,59.02663
419.00,59.02841
420.00,58.95145
421.00,58.93332
422.00,58.85047
423.00,58.85658
424.00,58.93822
425.00,58.89343
426.00,58.91777
427.00,58.91044
428.00,58.93018
429.00,58.89748
430.00,58.96304
431.00,59.02196
432.00,59.04106
433.00,59.13519
434.00,59.23294
435.00,59.28789
436.00,59.41235
437.00,59.51176
438.00,59.55825
439.00,59.70687
440.00,59.88244
441.00,59.98812
442.00,60.13730
443.00,60.29820
444.00,60.41381
445.00,60.60663
446.00,60.77460
447.00,60.94675
448.00,61.09596
449.00,61.27757
450.00,61.40989
451.00,61.60712
452.00,61.78658
453.00,61.92487
454.00,62.05466
455.00,62.27408
456.00,62.40841
457.00,62.51711
458.00,62.68297
459.00,62.78775
460.00,62.97320
461.00,63.08788
462.00,63.20008
463.00,63.27034
464.00,63.36155
465.00,63.47945
466.00,63.49958
467.00,63.61099
468.00,63.65047
469.00,63.69736
470.00,63.70868
471.00,63.71821
472.00,63.71408
473.00,63.79092
474.00,63.70767
475.00,63.70128
476.00,63.66257
477.00,63.64055
478.00,63.58292
479.00,63.51025
480.00,63.46793
481.00,63.41936
482.00,63.29561
483.00,63.18828
484.00,63.11665
485.00,63.01348
486.00,62.91587
487.00,62.85436
488.00,62.65964
489.00,62.64733
490.00,62.49695
491.00,62.38477
492.00,62.29376
493.00,62.15963
494.00,62.08143
495.00,61.98799
496.00,61.84563
497.00,61.71804
498.00,61.63923
499.00,61.55046
500.00,61.40146
501.00,61.33233
502.00,61.22208
503.00,61.14796
504.00,61.06105
505.00,60.94620
506.00,60.85728
507.00,60.81976
508.00,60.72301
509.00,60.66607
510.00,60.56823
511.00,60.53760
512.00,60.48271
513.00,60.42965
514.00,60.44675
515.00,60.36543
516.00,60.35364
517.00,60.36010
518.00,60.39403
519.00,60.27472
520.00,60.38070
521.00,60.33572
522.00,60.35975
523.00,60.33205
524.00,60.35620
525.00,60.44278
526.00,60.46806
527.00,60.48402
528.00,60.59160
529.00,60.53526
530.00,60.59062
531.00,60.68189
532.00,60.77602
533.00,60.82047
534.00,60.94559
535.00,60.96243
536.00,61.06691
537.00,61.19519
538.00,61.23787
539.00,61.36230
540.00,61.46446
541.00,61.57927
542.00,61.59074
543.00,61.69153
544.00,61.82737
545.00,61.91629
546.00,61.97631
547.00,62.09712
548.00,62.19612
549.00,62.26078
550.00,62.40581
551.00,62.46895
552.00,62.58950
553.00,62.72539
554.00,62.79616
555.00,62.90209
556.00,62.98430
557.00,63.07891
558.00,63.19297
559.00,63.27163
560.00,63.32726
561.00,63.41628
562.00,63.48730
563.00,63.60807
564.00,63.68195
565.00,63.71421
566.00,63.70913
567.00,63.87939
568.00,63.93665
569.00,63.98066
570.00,64.06280
571.00,64.05993
572.00,64.13775
573.00,64.16351
574.00,64.25647
575.00,64.28748
576.00,64.29756
577.00,64.36282
578.00,64.45117
579.00,64.42466
580.00,64.41681
581.00,64.46176
582.00,64.51676
583.00,64.46651
584.00,64.47814
585.00,64.50408
586.00,64.48839
587.00,64.46289
588.00,64.46910
589.00,64.49518
590.00,64.44232
591.00,64.49367
592.00,64.45831
593.00,64.40530
594.00,64.36651
595.00,64.36876
596.00,64.31496
597.00,64.23643
598.00,64.24798
599.00,64.15445
600.00,64.15801
601.00,64.10530
602.00,64.06089
603.00,64.00230
604.00,63.98169
605.00,63.92499
606.00,63.83377
607.00,63.73649
608.00,63.71115
609.00,63.68947
610.00,63.62239
611.00,63.50488
612.00,63.54612
613.00,63.41956
614.00,63.41679
615.00,63.30070
616.00,63.23429
617.00,63.22099
618.00,63.16414
619.00,63.08892
620.00,63.01768
621.00,62.98001
622.00,62.91670
623.00,62.79591
624.00,62.78788
625.00,62.72718
626.00,62.65681
627.00,62.52427
628.00,62.57955
629.00,62.52969
630.00,62.46099
631.00,62.41504
632.00,62.34409
633.00,62.31334
634.00,62.32435
635.00,62.23242
636.00,62.21620
637.00,62.17841
638.00,62.16292
639.00,62.11675
640.00,62.05142
641.00,62.05552
642.00,62.02189
643.00,62.00717
644.00,62.08668
645.00,61.99147
646.00,61.99024
647.00,61.97474
648.00,61.96522
649.00,62.00788
650.00,61.96549
651.00,61.96250
652.00,61.98168
653.00,61.94833
654.00,62.04325
655.00,62.06524
656.00,62.06323
657.00,62.00417
658.00,62.05270
659.00,62.07747
660.00,62.08752
661.00,62.12426
662.00,62.14170
663.00,62.19382
664.00,62.26286
665.00,62.23063
666.00,62.31569
667.00,62.33541
668.00,62.45950
669.00,62.50105
670.00,62.60387
671.00,62.66916
672.00,62.69048
673.00,62.84288
674.00,62.80149
675.00,62.88300
676.00,63.08237
677.00,63.07814
678.00,63.14771
679.00,63.24838
680.00,63.35513
681.00,63.41347
682.00,63.57597
683.00,63.79276
684.00,63.85233
685.00,64.00654
686.00,64.18493
687.00,64.14784
688.00,64.44043
689.00,64.45557
690.00,64.66162
691.00,64.81801
692.00,64.93261
693.00,65.01428
694.00,65.17939
695.00,65.37439
696.00,65.47614
697.00,65.75581
698.00,65.86863
699.00,65.85662
700.00,66.13811
701.00,66.22554
702.00,66.41519
703.00,66.52529
704.00,66.70721
705.00,67.01973
706.00,67.12393
707.00,67.19453
708.00,67.36259
709.00,67.52880
710.00,67.67138
711.00,67.86611
712.00,67.87739
713.00,68.08964
714.00,68.17747
715.00,68.38742
716.00,68.41540
717.00,68.63304
718.00,68.75507
719.00,68.83423
720.00,69.08799
721.00,69.10903
722.00,69.16624
723.00,69.39931
724.00,69.47379
725.00,69.49337
726.00,69.67844
727.00,69.82500
728.00,69.94564
729.00,69.87500
730.00,69.98945
731.00,70.27227
732.00,70.23033
733.00,70.36235
734.00,70.24354
735.00,70.55136
736.00,70.66775
737.00,70.60336
738.00,70.63364
739.00,70.69066
740.00,70.76616
741.00,71.00027
742.00,70.90130
743.00,70.93658
744.00,70.84177
745.00,71.08879
746.00,71.15719
747.00,71.38558
748.00,71.40794
749.00,71.23871
750.00,71.31485
751.00,71.50515
752.00,71.45280
753.00,71.40095
754.00,71.64608
755.00,71.80881
756.00,71.72742
757.00,71.69660
758.00,71.61868
759.00,71.89702
760.00,71.84584
761.00,71.72828
762.00,71.89971
763.00,71.72585
764.00,71.89024
765.00,71.73414
766.00,71.82217
767.00,71.92341
768.00,71.84261
769.00,71.87687
770.00,71.97173
771.00,72.14926
772.00,71.91498
773.00,71.89085
774.00,72.05974
775.00,72.06118
776.00,72.08030
777.00,72.11094
778.00,72.06638
779.00,72.13970
780.00,72.04382
781.00,72.10113
782.00,71.77618
783.00,72.09126
784.00,72.00395
785.00,72.11505
786.00,72.24553
787.00,72.03688
788.00,71.98961
789.00,72.06780
790.00,71.83461
791.00,72.11477
792.00,71.96505
793.00,72.05999
794.00,71.87262
795.00,71.87134
796.00,72.03667
797.00,71.80832
798.00,72.10951
799.00,72.05316
800.00,71.72258
