"Sam7VSlowTrans - RawData"
"Wavelength nm.","T%"
190.00,1.94320
191.00,1.27257
192.00,0.76530
193.00,0.61005
194.00,0.44331
195.00,0.36409
196.00,0.35869
197.00,0.22158
198.00,0.31778
199.00,0.30719
200.00,0.24018
201.00,0.25548
202.00,0.22439
203.00,0.15733
204.00,0.16522
205.00,0.20086
206.00,0.14361
207.00,0.16498
208.00,0.11686
209.00,0.14532
210.00,0.15447
211.00,0.10901
212.00,0.12376
213.00,0.14293
214.00,0.09928
215.00,0.10736
216.00,0.11521
217.00,0.11727
218.00,0.12755
219.00,0.13486
220.00,0.10925
221.00,0.12696
222.00,0.13542
223.00,0.13855
224.00,0.13881
225.00,0.14604
226.00,0.15666
227.00,0.18998
228.00,0.20454
229.00,0.25294
230.00,0.29505
231.00,0.39293
232.00,0.47528
233.00,0.60740
234.00,0.78225
235.00,0.97626
236.00,1.19403
237.00,1.43890
238.00,1.74784
239.00,2.05746
240.00,2.38318
241.00,2.80454
242.00,3.26500
243.00,3.81144
244.00,4.38681
245.00,5.08674
246.00,5.85288
247.00,6.72713
248.00,7.69555
249.00,8.94711
250.00,10.31850
251.00,12.05139
252.00,13.99615
253.00,16.37739
254.00,18.98368
255.00,21.92790
256.00,25.03854
257.00,28.34155
258.00,31.54722
259.00,34.68204
260.00,37.75942
261.00,40.53912
262.00,43.04042
263.00,45.18670
264.00,47.01124
265.00,48.37928
266.00,49.35166
267.00,50.02957
268.00,50.38632
269.00,50.60713
270.00,50.66115
271.00,50.69430
272.00,50.76222
273.00,50.81954
274.00,50.97923
275.00,51.36839
276.00,51.76265
277.00,52.09705
278.00,52.77327
279.00,53.17284
280.00,53.64481
281.00,54.20665
282.00,54.74470
283.00,54.96640
284.00,55.10778
285.00,55.42461
286.00,55.47007
287.00,55.37984
288.00,55.41782
289.00,55.25655
290.00,55.26083
291.00,54.93299
292.00,54.87505
293.00,54.66827
294.00,54.59063
295.00,54.60846
296.00,54.54657
297.00,54.53873
298.00,54.62234
299.00,54.85240
300.00,55.19108
301.00,55.38123
302.00,55.60532
303.00,55.95032
304.00,56.25179
305.00,56.63237
306.00,56.93151
307.00,57.23066
308.00,57.42732
309.00,57.57508
310.00,57.84124
311.00,58.00548
312.00,58.15425
313.00,58.12637
314.00,58.03676
315.00,58.00546
316.00,57.93629
317.00,57.80953
318.00,57.58295
319.00,57.48014
320.00,57.29030
321.00,57.06206
322.00,56.85558
323.00,56.69457
324.00,56.81064
325.00,56.55546
326.00,56.53442
327.00,56.42186
328.00,56.42123
329.00,56.30218
330.00,56.31677
331.00,56.25055
332.00,56.59631
333.00,56.57632
334.00,56.82328
335.00,56.88279
336.00,57.09595
337.00,57.33305
338.00,57.54707
339.00,57.82084
340.00,58.00037
341.00,58.31989
342.00,58.40595
343.00,58.70243
344.00,58.71210
345.00,58.96451
346.00,59.15997
347.00,59.22388
348.00,59.32025
349.00,59.39423
350.00,59.48089
351.00,59.52333
352.00,59.44430
353.00,59.41386
354.00,59.31574
355.00,59.14853
356.00,59.12523
357.00,59.01895
358.00,58.87563
359.00,58.69604
360.00,58.62672
361.00,58.42726
362.00,58.37753
363.00,58.31695
364.00,57.98049
365.00,57.94221
366.00,57.83110
367.00,57.69804
368.00,57.55740
369.00,57.50416
370.00,57.45354
371.00,57.56724
372.00,57.43701
373.00,57.41034
374.00,57.45495
375.00,57.53937
376.00,57.56239
377.00,57.61582
378.00,57.66352
379.00,57.81092
380.00,57.92893
381.00,58.03558
382.00,58.12275
383.00,58.29715
384.00,58.47123
385.00,58.66167
386.00,58.75418
387.00,58.97849
388.00,59.09559
389.00,59.27006
390.00,59.37827
391.00,59.53938
392.00,59.73848
393.00,59.87528
394.00,59.97521
395.00,60.13479
396.00,60.14566
397.00,60.27213
398.00,60.33995
399.00,60.37083
400.00,60.40490
401.00,60.45466
402.00,60.51117
403.00,60.43512
404.00,60.43601
405.00,60.43546
406.00,60.43968
407.00,60.39860
408.00,60.35008
409.00,60.26958
410.00,60.20023
411.00,60.11220
412.00,60.02170
413.00,59.93531
414.00,59.80728
415.00,59.68431
416.00,59.62157
417.00,59.51371
418.00,59.38241
419.00,59.31087
420.00,59.19193
421.00,59.10180
422.00,59.00937
423.00,58.91173
424.00,58.83248
425.00,58.73037
426.00,58.69626
427.00,58.63025
428.00,58.60982
429.00,58.51825
430.00,58.47486
431.00,58.47179
432.00,58.46045
433.00,58.45205
434.00,58.43634
435.00,58.47973
436.00,58.47935
437.00,58.49787
438.00,58.55247
439.00,58.59850
440.00,58.66004
441.00,58.71329
442.00,58.75418
443.00,58.86145
444.00,58.91470
445.00,59.03079
446.00,59.10094
447.00,59.22272
448.00,59.29555
449.00,59.41619
450.00,59.51210
451.00,59.57265
452.00,59.73001
453.00,59.84218
454.00,59.95136
455.00,60.05137
456.00,60.18099
457.00,60.28156
458.00,60.43698
459.00,60.53672
460.00,60.64190
461.00,60.74808
462.00,60.86192
463.00,60.94989
464.00,61.04276
465.00,61.13073
466.00,61.19668
467.00,61.28724
468.00,61.32399
469.00,61.40406
470.00,61.45847
471.00,61.48405
472.00,61.57406
473.00,61.57506
474.00,61.54734
475.00,61.61018
476.00,61.62138
477.00,61.64190
478.00,61.64989
479.00,61.66461
480.00,61.63309
481.00,61.60071
482.00,61.59117
483.00,61.56972
484.00,61.49853
485.00,61.47427
486.00,61.45489
487.00,61.38586
488.00,61.33522
489.00,61.30010
490.00,61.24860
491.00,61.19988
492.00,61.11962
493.00,61.05327
494.00,61.00909
495.00,60.92399
496.00,60.89517
497.00,60.79059
498.00,60.76956
499.00,60.63675
500.00,60.58307
501.00,60.54337
502.00,60.45596
503.00,60.37811
504.00,60.29897
505.00,60.26484
506.00,60.21866
507.00,60.16167
508.00,60.06756
509.00,60.06138
510.00,60.01295
511.00,59.93543
512.00,59.88317
513.00,59.89788
514.00,59.80571
515.00,59.78451
516.00,59.79491
517.00,59.73684
518.00,59.71138
519.00,59.66111
520.00,59.68010
521.00,59.69695
522.00,59.68256
523.00,59.69865
524.00,59.69362
525.00,59.71383
526.00,59.69305
527.00,59.71122
528.00,59.75780
529.00,59.77582
530.00,59.83270
531.00,59.82009
532.00,59.87853
533.00,59.93133
534.00,59.93188
535.00,59.97652
536.00,60.08453
537.00,60.12126
538.00,60.11463
539.00,60.19383
540.00,60.20638
541.00,60.29362
542.00,60.34758
543.00,60.42953
544.00,60.49383
545.00,60.58077
546.00,60.65800
547.00,60.72080
548.00,60.78526
549.00,60.87226
550.00,60.93791
551.00,61.04910
552.00,61.08508
553.00,61.16078
554.00,61.26159
555.00,61.36000
556.00,61.41112
557.00,61.48684
558.00,61.55939
559.00,61.64201
560.00,61.73949
561.00,61.76761
562.00,61.83369
563.00,61.99222
564.00,62.01374
565.00,62.09877
566.00,62.12645
567.00,62.20452
568.00,62.29272
569.00,62.37310
570.00,62.39327
571.00,62.45193
572.00,62.52885
573.00,62.57576
574.00,62.65962
575.00,62.68925
576.00,62.72039
577.00,62.75608
578.00,62.78925
579.00,62.86076
580.00,62.86349
581.00,62.90714
582.00,62.97432
583.00,62.99434
584.00,63.01357
585.00,63.02165
586.00,63.05966
587.00,63.10129
588.00,63.07928
589.00,63.13475
590.00,63.10937
591.00,63.14884
592.00,63.17502
593.00,63.14607
594.00,63.14249
595.00,63.07817
596.00,63.13381
597.00,63.09851
598.00,63.12088
599.00,63.05762
600.00,63.09596
601.00,63.06692
602.00,63.05572
603.00,63.03582
604.00,63.03042
605.00,62.99736
606.00,62.95962
607.00,62.92225
608.00,62.89000
609.00,62.87517
610.00,62.89504
611.00,62.80723
612.00,62.78719
613.00,62.77429
614.00,62.73484
615.00,62.67318
616.00,62.66293
617.00,62.61957
618.00,62.56580
619.00,62.56343
620.00,62.51990
621.00,62.48392
622.00,62.44556
623.00,62.41748
624.00,62.35009
625.00,62.32214
626.00,62.28107
627.00,62.25783
628.00,62.20911
629.00,62.16260
630.00,62.12958
631.00,62.10659
632.00,62.06732
633.00,62.03992
634.00,62.02024
635.00,61.99352
636.00,61.91027
637.00,61.91667
638.00,61.88086
639.00,61.86805
640.00,61.83345
641.00,61.75727
642.00,61.75839
643.00,61.73077
644.00,61.73750
645.00,61.62594
646.00,61.66891
647.00,61.64175
648.00,61.63608
649.00,61.59247
650.00,61.57286
651.00,61.54764
652.00,61.55319
653.00,61.50848
654.00,61.53076
655.00,61.49220
656.00,61.47733
657.00,61.50033
658.00,61.46424
659.00,61.46227
660.00,61.45926
661.00,61.45000
662.00,61.46173
663.00,61.48571
664.00,61.44723
665.00,61.47590
666.00,61.50745
667.00,61.49360
668.00,61.55421
669.00,61.50897
670.00,61.54088
671.00,61.57983
672.00,61.54665
673.00,61.55694
674.00,61.53377
675.00,61.59400
676.00,61.60322
677.00,61.66030
678.00,61.66095
679.00,61.68836
680.00,61.70294
681.00,61.72118
682.00,61.77730
683.00,61.77096
684.00,61.87735
685.00,61.86777
686.00,61.86518
687.00,61.96256
688.00,61.96047
689.00,61.98667
690.00,62.00498
691.00,61.98832
692.00,62.10542
693.00,62.11983
694.00,62.18721
695.00,62.27270
696.00,62.27242
697.00,62.33791
698.00,62.35895
699.00,62.40861
700.00,62.45787
701.00,62.53465
702.00,62.54308
703.00,62.56550
704.00,62.64344
705.00,62.70077
706.00,62.75508
707.00,62.79697
708.00,62.85528
709.00,62.88028
710.00,62.91901
711.00,63.00518
712.00,63.05903
713.00,63.05296
714.00,63.04839
715.00,63.23877
716.00,63.20615
717.00,63.34136
718.00,63.37013
719.00,63.39197
720.00,63.43964
721.00,63.47843
722.00,63.50014
723.00,63.57720
724.00,63.62761
725.00,63.71928
726.00,63.72590
727.00,63.71436
728.00,63.79682
729.00,63.96230
730.00,63.89877
731.00,63.87060
732.00,64.03314
733.00,64.06578
734.00,64.10607
735.00,64.16117
736.00,64.18552
737.00,64.30061
738.00,64.32674
739.00,64.29951
740.00,64.34127
741.00,64.43091
742.00,64.47126
743.00,64.55076
744.00,64.61470
745.00,64.50484
746.00,64.64748
747.00,64.64010
748.00,64.69957
749.00,64.83418
750.00,64.78419
751.00,64.90756
752.00,64.89753
753.00,64.97154
754.00,64.96133
755.00,65.01335
756.00,64.99435
757.00,65.07816
758.00,65.13999
759.00,65.06384
760.00,65.17432
761.00,65.18145
762.00,65.18490
763.00,65.27784
764.00,65.25225
765.00,65.27303
766.00,65.34231
767.00,65.39279
768.00,65.26026
769.00,65.35369
770.00,65.38730
771.00,65.36426
772.00,65.47396
773.00,65.40361
774.00,65.38502
775.00,65.39049
776.00,65.54188
777.00,65.45675
778.00,65.49312
779.00,65.51628
780.00,65.58416
781.00,65.67848
782.00,65.51440
783.00,65.58048
784.00,65.66193
785.00,65.50919
786.00,65.54650
787.00,65.66988
788.00,65.48975
789.00,65.54989
790.00,65.75231
791.00,65.54002
792.00,65.40029
793.00,65.58185
794.00,65.59381
795.00,65.71224
796.00,65.54251
797.00,65.56534
798.00,65.59315
799.00,65.54002
800.00,65.53156
