"SpecRefSampleTrain - RawData"
"Wavelength nm.","R%"
190.00,5.92427
191.00,5.63705
192.00,7.84303
193.00,7.29345
194.00,5.73135
195.00,6.73300
196.00,6.19413
197.00,6.18825
198.00,6.70807
199.00,6.66090
200.00,6.80383
201.00,6.71360
202.00,7.54980
203.00,7.34545
204.00,6.58310
205.00,8.14349
206.00,7.35532
207.00,8.17942
208.00,8.09243
209.00,8.21279
210.00,8.97463
211.00,8.71595
212.00,9.17995
213.00,8.84477
214.00,9.37844
215.00,9.47451
216.00,9.10109
217.00,9.28073
218.00,9.24984
219.00,9.26207
220.00,9.16291
221.00,9.11543
222.00,9.08454
223.00,8.94179
224.00,9.13805
225.00,9.21552
226.00,9.28235
227.00,9.07022
228.00,9.31546
229.00,9.11681
230.00,9.48585
231.00,9.35467
232.00,9.27203
233.00,9.54839
234.00,9.66305
235.00,9.89590
236.00,10.09028
237.00,10.07818
238.00,10.29487
239.00,10.22809
240.00,10.52651
241.00,10.73486
242.00,10.78229
243.00,11.01995
244.00,11.09376
245.00,11.10301
246.00,11.22399
247.00,11.18289
248.00,11.35987
249.00,11.36030
250.00,11.66454
251.00,12.06084
252.00,12.20600
253.00,12.09321
254.00,12.45601
255.00,12.35131
256.00,12.70212
257.00,12.99534
258.00,13.80095
259.00,14.68240
260.00,16.22863
261.00,17.43335
262.00,18.76886
263.00,19.63100
264.00,20.64611
265.00,21.17302
266.00,21.32535
267.00,21.42113
268.00,21.48738
269.00,21.45215
270.00,21.57798
271.00,21.57331
272.00,21.81978
273.00,22.63037
274.00,22.93258
275.00,23.37240
276.00,24.22532
277.00,24.30643
278.00,24.84428
279.00,24.96471
280.00,25.46588
281.00,25.07385
282.00,24.99437
283.00,24.77987
284.00,24.69568
285.00,24.54143
286.00,24.13983
287.00,24.28122
288.00,23.79049
289.00,24.02521
290.00,23.89628
291.00,23.94876
292.00,24.45835
293.00,24.40991
294.00,24.85776
295.00,25.21699
296.00,25.75403
297.00,25.63314
298.00,25.99949
299.00,26.35423
300.00,26.48535
301.00,26.44068
302.00,26.48765
303.00,26.60523
304.00,26.71063
305.00,26.40863
306.00,26.25500
307.00,25.92249
308.00,25.69773
309.00,25.18024
310.00,25.35159
311.00,24.90923
312.00,24.67214
313.00,24.52611
314.00,24.10239
315.00,23.91370
316.00,24.12214
317.00,24.34030
318.00,24.40934
319.00,24.04969
320.00,24.35110
321.00,24.70017
322.00,24.96132
323.00,25.19481
324.00,25.51230
325.00,25.51816
326.00,25.99401
327.00,26.30518
328.00,26.29760
329.00,26.22865
330.00,26.60673
331.00,26.32083
332.00,26.42933
333.00,26.60216
334.00,26.50178
335.00,26.07245
336.00,25.87475
337.00,25.97398
338.00,25.72315
339.00,25.35253
340.00,25.22324
341.00,25.07990
342.00,24.75302
343.00,24.73257
344.00,24.09225
345.00,24.47407
346.00,23.97430
347.00,23.97803
348.00,23.67641
349.00,23.64705
350.00,23.69612
351.00,23.83857
352.00,23.70155
353.00,23.91930
354.00,24.10887
355.00,24.14295
356.00,24.34094
357.00,24.48561
358.00,24.43594
359.00,24.74444
360.00,24.84340
361.00,25.15655
362.00,25.32070
363.00,25.12474
364.00,25.67029
365.00,25.78669
366.00,25.82536
367.00,26.10280
368.00,26.16030
369.00,25.84181
370.00,26.00096
371.00,25.94019
372.00,26.22792
373.00,25.90647
374.00,25.86600
375.00,25.84377
376.00,25.63961
377.00,25.64115
378.00,25.33230
379.00,25.22098
380.00,25.00013
381.00,24.77888
382.00,24.55223
383.00,24.48141
384.00,24.28219
385.00,24.12495
386.00,23.95723
387.00,23.79863
388.00,23.59584
389.00,23.35856
390.00,23.38370
391.00,23.36335
392.00,23.16892
393.00,23.11513
394.00,22.97230
395.00,23.08390
396.00,22.98957
397.00,23.12618
398.00,23.17155
399.00,23.20843
400.00,23.29056
401.00,23.39237
402.00,23.35683
403.00,23.50952
404.00,23.62816
405.00,23.86472
406.00,24.03335
407.00,24.00324
408.00,24.30327
409.00,24.37224
410.00,24.56160
411.00,24.64409
412.00,24.80316
413.00,24.86687
414.00,24.98182
415.00,25.07638
416.00,25.11000
417.00,25.11973
418.00,25.20455
419.00,25.35987
420.00,25.36977
421.00,25.45062
422.00,25.46586
423.00,25.38220
424.00,25.27128
425.00,25.31389
426.00,25.27435
427.00,25.10513
428.00,25.17794
429.00,25.07693
430.00,24.94045
431.00,24.80056
432.00,24.65423
433.00,24.62431
434.00,24.39715
435.00,24.24904
436.00,24.09034
437.00,24.00663
438.00,23.84244
439.00,23.75384
440.00,23.48925
441.00,23.37806
442.00,23.21931
443.00,23.14014
444.00,22.98780
445.00,22.92348
446.00,22.75242
447.00,22.69577
448.00,22.54817
449.00,22.47611
450.00,22.43967
451.00,22.38804
452.00,22.31470
453.00,22.17473
454.00,22.17591
455.00,22.14206
456.00,22.16855
457.00,22.12570
458.00,22.12510
459.00,22.14399
460.00,22.19254
461.00,22.19808
462.00,22.30554
463.00,22.17979
464.00,22.34658
465.00,22.44084
466.00,22.50681
467.00,22.63933
468.00,22.71029
469.00,22.74660
470.00,22.84217
471.00,22.96080
472.00,23.10191
473.00,23.17018
474.00,23.25863
475.00,23.36043
476.00,23.41641
477.00,23.62239
478.00,23.59278
479.00,23.65676
480.00,23.85131
481.00,23.94712
482.00,24.05080
483.00,24.02989
484.00,24.12977
485.00,24.07983
486.00,24.25727
487.00,24.27678
488.00,24.41843
489.00,24.37116
490.00,24.47654
491.00,24.44474
492.00,24.44530
493.00,24.48769
494.00,24.51140
495.00,24.41258
496.00,24.47139
497.00,24.33452
498.00,24.44631
499.00,24.36007
500.00,24.29249
501.00,24.27646
502.00,24.33144
503.00,24.16043
504.00,24.06514
505.00,24.02727
506.00,23.95757
507.00,23.81079
508.00,23.82614
509.00,23.67010
510.00,23.60355
511.00,23.49890
512.00,23.26610
513.00,23.24192
514.00,23.10687
515.00,23.00732
516.00,22.89147
517.00,22.76728
518.00,22.70957
519.00,22.50788
520.00,22.49814
521.00,22.39305
522.00,22.32004
523.00,22.18945
524.00,22.15078
525.00,21.98854
526.00,21.87702
527.00,21.73475
528.00,21.64380
529.00,21.52482
530.00,21.56519
531.00,21.45790
532.00,21.45871
533.00,21.37964
534.00,21.26320
535.00,21.26754
536.00,21.10144
537.00,21.24800
538.00,21.05964
539.00,21.09992
540.00,21.07477
541.00,21.00944
542.00,20.94389
543.00,21.01932
544.00,21.03721
545.00,21.01045
546.00,21.05232
547.00,21.03224
548.00,21.03863
549.00,21.09104
550.00,21.09437
551.00,21.16469
552.00,21.18333
553.00,21.25790
554.00,21.27904
555.00,21.23163
556.00,21.35204
557.00,21.39710
558.00,21.47845
559.00,21.48487
560.00,21.55356
561.00,21.65174
562.00,21.63877
563.00,21.74947
564.00,21.82941
565.00,21.91404
566.00,21.95737
567.00,21.96645
568.00,22.06479
569.00,22.16663
570.00,22.17835
571.00,22.31263
572.00,22.41803
573.00,22.45691
574.00,22.49134
575.00,22.59226
576.00,22.58372
577.00,22.73255
578.00,22.80430
579.00,22.69457
580.00,22.84091
581.00,22.94854
582.00,22.92233
583.00,23.09055
584.00,22.99451
585.00,23.04253
586.00,23.11676
587.00,23.11488
588.00,23.10150
589.00,23.23047
590.00,23.22648
591.00,23.30039
592.00,23.28090
593.00,23.24267
594.00,23.27978
595.00,23.31034
596.00,23.22084
597.00,23.32626
598.00,23.34152
599.00,23.38249
600.00,23.37158
601.00,23.33530
602.00,23.30135
603.00,23.31389
604.00,23.30881
605.00,23.26514
606.00,23.11700
607.00,23.22689
608.00,23.12321
609.00,23.12764
610.00,23.14485
611.00,23.04340
612.00,22.97096
613.00,22.89719
614.00,22.91037
615.00,22.84143
616.00,22.81565
617.00,22.74572
618.00,22.70395
619.00,22.66035
620.00,22.53869
621.00,22.50724
622.00,22.41043
623.00,22.34401
624.00,22.24040
625.00,22.17979
626.00,22.26566
627.00,22.14413
628.00,21.93794
629.00,21.88980
630.00,21.78674
631.00,21.80931
632.00,21.64533
633.00,21.63813
634.00,21.61596
635.00,21.49456
636.00,21.45094
637.00,21.42105
638.00,21.18655
639.00,21.28386
640.00,21.07869
641.00,21.03594
642.00,20.94126
643.00,20.96024
644.00,20.81586
645.00,20.79373
646.00,20.70864
647.00,20.64563
648.00,20.57684
649.00,20.47321
650.00,20.44785
651.00,20.47325
652.00,20.28287
653.00,20.33199
654.00,20.16529
655.00,20.16541
656.00,20.08206
657.00,20.05597
658.00,19.97098
659.00,20.02439
660.00,19.92386
661.00,19.79322
662.00,19.82364
663.00,19.77184
664.00,19.73845
665.00,19.74849
666.00,19.73218
667.00,19.74640
668.00,19.64587
669.00,19.66707
670.00,19.65028
671.00,19.55050
672.00,19.59761
673.00,19.49916
674.00,19.64718
675.00,19.55597
676.00,19.58793
677.00,19.52084
678.00,19.50832
679.00,19.52538
680.00,19.54060
681.00,19.51933
682.00,19.54362
683.00,19.50076
684.00,19.59962
685.00,19.58714
686.00,19.61636
687.00,19.64458
688.00,19.60163
689.00,19.52718
690.00,19.67919
691.00,19.65821
692.00,19.76117
693.00,19.67062
694.00,19.71826
695.00,19.81368
696.00,19.67410
697.00,19.87314
698.00,19.77942
699.00,19.69336
700.00,19.75049
701.00,20.02680
702.00,19.96554
703.00,19.95447
704.00,20.06267
705.00,20.02698
706.00,20.05940
707.00,20.11172
708.00,20.06087
709.00,20.21536
710.00,20.19819
711.00,20.28233
712.00,20.37162
713.00,20.39835
714.00,20.37055
715.00,20.39094
716.00,20.48429
717.00,20.40063
718.00,20.39535
719.00,20.48424
720.00,20.56547
721.00,20.68823
722.00,20.63133
723.00,20.69715
724.00,20.63339
725.00,20.79321
726.00,20.75404
727.00,20.80054
728.00,20.88331
729.00,20.81943
730.00,20.87241
731.00,21.06249
732.00,20.83214
733.00,21.04446
734.00,21.03355
735.00,21.02765
736.00,20.93941
737.00,21.03379
738.00,21.18287
739.00,20.95993
740.00,21.20086
741.00,21.11295
742.00,21.27893
743.00,21.12079
744.00,21.35830
745.00,21.39080
746.00,21.20062
747.00,21.01303
748.00,21.01382
749.00,21.13002
750.00,21.38589
751.00,21.44218
752.00,21.09338
753.00,21.19997
754.00,21.24966
755.00,21.08779
756.00,21.25861
757.00,21.52596
758.00,21.04151
759.00,21.29035
760.00,21.20296
761.00,20.97508
762.00,21.27790
763.00,21.20447
764.00,21.28186
765.00,21.09792
766.00,21.25297
767.00,21.21391
768.00,21.28907
769.00,21.11408
770.00,21.11964
771.00,21.28254
772.00,21.26664
773.00,21.10124
774.00,21.01787
775.00,21.30652
776.00,21.12200
777.00,20.97430
778.00,21.16732
779.00,20.98897
780.00,21.04529
781.00,21.16661
782.00,20.71493
783.00,20.82154
784.00,21.09312
785.00,20.90752
786.00,20.87144
787.00,20.98108
788.00,20.74656
789.00,20.61759
790.00,20.62885
791.00,20.54428
792.00,20.59441
793.00,20.57729
794.00,20.83272
795.00,20.59017
796.00,20.53579
797.00,20.20160
798.00,20.74040
799.00,20.24144
800.00,20.49491
801.00,20.24984
802.00,20.18968
803.00,20.39874
804.00,20.52567
805.00,20.12319
806.00,20.08069
807.00,19.93429
808.00,20.10341
809.00,20.07648
810.00,20.15827
811.00,20.03186
812.00,20.00916
813.00,19.77478
814.00,20.20085
815.00,19.98898
816.00,19.98610
817.00,20.12575
818.00,19.73970
819.00,19.93416
820.00,19.32973
821.00,19.74173
822.00,19.26779
823.00,19.68625
824.00,19.12632
825.00,19.54125
826.00,19.22176
827.00,19.70119
828.00,19.42472
829.00,19.65042
830.00,18.85549
831.00,19.11201
832.00,19.46157
833.00,18.74265
834.00,19.27975
835.00,19.34713
836.00,18.93516
837.00,18.62716
838.00,19.30322
839.00,19.65495
840.00,18.61761
841.00,18.86376
842.00,18.41297
843.00,18.29729
844.00,17.87886
845.00,18.77681
846.00,18.44833
847.00,18.46733
848.00,18.07750
849.00,17.05811
850.00,18.23151
851.00,17.68355
852.00,18.82476
853.00,18.94156
854.00,18.10248
855.00,17.53912
856.00,18.88894
857.00,17.47472
858.00,17.94727
859.00,17.13670
860.00,17.81107
861.00,16.72058
862.00,14.49591
863.00,18.65248
864.00,18.16996
865.00,18.47782
866.00,16.96615
867.00,16.68418
868.00,19.20067
869.00,20.10432
870.00,16.27192
871.00,18.29367
872.00,19.69665
873.00,19.25051
874.00,18.95987
875.00,16.77465
876.00,20.27378
877.00,16.88966
878.00,23.35580
879.00,15.90717
880.00,19.41577
881.00,24.34093
882.00,19.62002
883.00,17.96319
884.00,21.75989
885.00,15.33879
886.00,22.37658
887.00,19.37671
888.00,13.09951
889.00,19.82677
890.00,19.90068
891.00,19.86912
892.00,20.31440
893.00,17.19653
894.00,18.60378
895.00,12.36237
896.00,15.56069
897.00,24.74487
898.00,18.74659
899.00,21.22187
900.00,23.78697
