"MN1198sUBSlow - RawData"
"Wavelength nm.","T%"
200.00,26.75945
201.00,28.56698
202.00,28.69110
203.00,28.14383
204.00,29.96667
205.00,28.92185
206.00,29.90541
207.00,28.92489
208.00,28.58566
209.00,30.34763
210.00,29.76779
211.00,30.27017
212.00,30.33725
213.00,30.21747
214.00,31.12021
215.00,30.87147
216.00,30.50700
217.00,30.62383
218.00,31.67017
219.00,31.40208
220.00,30.37449
221.00,31.34964
222.00,31.25015
223.00,31.26932
224.00,31.41568
225.00,31.41876
226.00,31.18013
227.00,31.17842
228.00,31.28958
229.00,31.03139
230.00,31.31374
231.00,31.29207
232.00,31.53303
233.00,31.67366
234.00,31.47475
235.00,31.53257
236.00,31.32100
237.00,31.26948
238.00,31.62839
239.00,31.36307
240.00,31.35598
241.00,31.54766
242.00,31.28679
243.00,31.71801
244.00,31.43305
245.00,31.50608
246.00,31.60198
247.00,31.46633
248.00,31.40638
249.00,31.24061
250.00,31.50333
251.00,31.52525
252.00,31.40998
253.00,31.29129
254.00,31.31480
255.00,31.33056
256.00,31.08088
257.00,31.20047
258.00,31.32176
259.00,31.43661
260.00,31.19224
261.00,31.43357
262.00,31.45388
263.00,31.58261
264.00,31.59165
265.00,31.39260
266.00,31.67104
267.00,31.66963
268.00,31.75177
269.00,31.63557
270.00,31.86027
271.00,32.00110
272.00,32.09365
273.00,32.17064
274.00,32.33123
275.00,32.43599
276.00,32.58380
277.00,32.82261
278.00,32.87047
279.00,32.81064
280.00,33.47652
281.00,33.20616
282.00,33.53291
283.00,33.62889
284.00,33.76127
285.00,34.07778
286.00,34.46895
287.00,34.42770
288.00,34.80621
289.00,34.92678
290.00,35.00003
291.00,35.51582
292.00,35.95713
293.00,35.97028
294.00,36.41128
295.00,36.58398
296.00,36.66350
297.00,37.17950
298.00,36.99155
299.00,37.49593
300.00,37.66699
301.00,38.07047
302.00,38.44072
303.00,38.87810
304.00,38.93451
305.00,39.30518
306.00,40.79274
307.00,40.83554
308.00,41.29852
309.00,41.45028
310.00,42.19521
311.00,42.01295
312.00,42.29391
313.00,42.64738
314.00,43.07765
315.00,43.37598
316.00,43.23884
317.00,43.44738
318.00,44.16579
319.00,44.57527
320.00,44.45966
321.00,44.79147
322.00,44.93316
323.00,45.32207
324.00,45.28242
325.00,45.62564
326.00,45.81074
327.00,46.28161
328.00,46.05635
329.00,46.59142
330.00,47.02248
331.00,47.16413
332.00,47.13105
333.00,47.47301
334.00,47.71544
335.00,47.80888
336.00,47.87766
337.00,48.48066
338.00,48.36359
339.00,48.67309
340.00,48.91972
341.00,48.99193
342.00,49.15582
343.00,49.30298
344.00,49.44547
345.00,49.64811
346.00,49.91654
347.00,49.85892
348.00,50.01021
349.00,49.94471
350.00,50.06057
351.00,50.28132
352.00,50.42678
353.00,50.66754
354.00,50.57491
355.00,50.57799
356.00,50.56429
357.00,50.99346
358.00,50.88970
359.00,50.90289
360.00,51.08366
361.00,50.97481
362.00,51.06013
363.00,51.07766
364.00,51.01237
365.00,51.12470
366.00,51.17130
367.00,51.18699
368.00,51.40368
369.00,51.25061
370.00,51.13379
371.00,51.34629
372.00,51.65626
373.00,51.57450
374.00,51.44773
375.00,51.59896
376.00,51.47345
377.00,51.56908
378.00,51.55457
379.00,51.58121
380.00,51.73718
381.00,51.64776
382.00,51.89087
383.00,51.65087
384.00,51.76727
385.00,51.77539
386.00,51.69691
387.00,51.89866
388.00,51.60295
389.00,51.78748
390.00,51.73758
391.00,51.76140
392.00,51.85347
393.00,51.81401
394.00,51.88902
395.00,51.99305
396.00,51.83203
397.00,52.04771
398.00,51.96344
399.00,51.95996
400.00,52.12101
401.00,52.07393
402.00,52.00694
403.00,52.10552
404.00,52.15548
405.00,52.08061
406.00,52.22805
407.00,52.13163
408.00,52.17898
409.00,52.10320
410.00,52.10863
411.00,52.22142
412.00,52.34720
413.00,52.13505
414.00,52.34311
415.00,52.43527
416.00,52.36833
417.00,52.48603
418.00,52.60928
419.00,52.68227
420.00,52.79737
421.00,52.74203
422.00,52.83536
423.00,52.98274
424.00,53.02174
425.00,53.17441
426.00,53.14240
427.00,53.21195
428.00,53.21668
429.00,53.32952
430.00,53.28358
431.00,53.37215
432.00,53.48659
433.00,53.44949
434.00,53.59344
435.00,53.56922
436.00,53.53002
437.00,53.64057
438.00,53.59939
439.00,53.55679
440.00,53.64550
441.00,53.67655
442.00,53.72588
443.00,53.71288
444.00,53.73387
445.00,53.82248
446.00,53.88747
447.00,53.70898
448.00,53.87185
449.00,53.79764
450.00,53.82665
451.00,54.07085
452.00,53.79922
453.00,53.83676
454.00,54.00001
455.00,53.94670
456.00,53.99718
457.00,53.99216
458.00,53.95606
459.00,53.97720
460.00,54.02340
461.00,54.08840
462.00,54.01679
463.00,54.05189
464.00,54.00860
465.00,54.08396
466.00,54.16466
467.00,54.17301
468.00,54.16437
469.00,54.22606
470.00,54.22731
471.00,54.15882
472.00,54.31739
473.00,54.25174
474.00,54.28993
475.00,54.30384
476.00,54.22508
477.00,54.31271
478.00,54.26625
479.00,54.20489
480.00,54.18715
481.00,54.16340
482.00,54.21088
483.00,54.26285
484.00,54.24045
485.00,54.16270
486.00,54.15401
487.00,54.06731
488.00,54.19399
489.00,54.13545
490.00,54.28023
491.00,54.16574
492.00,54.18316
493.00,54.13229
494.00,54.14163
495.00,54.13932
496.00,54.16949
497.00,54.14044
498.00,54.21336
499.00,54.12904
500.00,54.18566
501.00,54.20907
502.00,54.12672
503.00,54.11595
504.00,54.11001
505.00,54.19581
506.00,54.23001
507.00,54.10694
508.00,54.16343
509.00,54.19073
510.00,54.18692
511.00,54.20218
512.00,54.24495
513.00,54.15486
514.00,54.27744
515.00,54.19459
516.00,54.28987
517.00,54.22724
518.00,54.16663
519.00,54.15570
520.00,54.25582
521.00,54.28988
522.00,54.17726
523.00,54.28199
524.00,54.31247
525.00,54.24831
526.00,54.17725
527.00,54.29052
528.00,54.23392
529.00,54.36192
530.00,54.28640
531.00,54.27005
532.00,54.31647
533.00,54.34567
534.00,54.18717
535.00,54.24716
536.00,54.34457
537.00,53.90825
538.00,53.79890
539.00,53.82677
540.00,53.91847
541.00,53.75216
542.00,53.90939
543.00,53.93093
544.00,53.87359
545.00,53.89552
546.00,53.89723
547.00,53.87721
548.00,53.93721
549.00,53.88185
550.00,53.95654
551.00,53.90883
552.00,53.93530
553.00,53.91666
554.00,53.91231
555.00,53.97140
556.00,53.89598
557.00,53.95266
558.00,53.89780
559.00,53.94545
560.00,54.08969
561.00,53.98146
562.00,54.06470
563.00,54.00938
564.00,54.04546
565.00,54.06940
566.00,54.22748
567.00,54.13029
568.00,54.09374
569.00,54.20484
570.00,54.19977
571.00,54.08649
572.00,54.12111
573.00,54.09279
574.00,54.15538
575.00,54.09557
576.00,54.00604
577.00,53.98095
578.00,53.93840
579.00,54.05449
580.00,53.91532
581.00,53.88501
582.00,53.94458
583.00,53.91917
584.00,53.88238
585.00,53.94030
586.00,53.95167
587.00,53.91527
588.00,53.89301
589.00,54.00391
590.00,53.82842
591.00,53.94646
592.00,53.94603
593.00,54.03680
594.00,53.98278
595.00,53.89602
596.00,53.97895
597.00,54.00777
598.00,53.98624
599.00,54.05532
600.00,54.06977
601.00,54.02759
602.00,54.01212
603.00,54.08226
604.00,54.02954
605.00,54.23005
606.00,54.13690
607.00,54.15290
608.00,54.09148
609.00,54.37523
610.00,54.24479
611.00,54.31557
612.00,54.23478
613.00,54.14860
614.00,54.29066
615.00,54.29887
616.00,54.29920
617.00,54.35994
618.00,54.30723
619.00,54.45147
620.00,54.42970
621.00,54.44524
622.00,54.53439
623.00,54.52543
624.00,54.44914
625.00,54.48977
626.00,54.45206
627.00,54.68548
628.00,54.63701
629.00,54.66833
630.00,54.68909
631.00,54.65779
632.00,54.70709
633.00,54.72373
634.00,54.75298
635.00,54.81949
636.00,54.83769
637.00,54.83324
638.00,54.92756
639.00,54.81244
640.00,54.90620
641.00,55.05620
642.00,54.95874
643.00,55.09194
644.00,54.99049
645.00,55.09702
646.00,55.13600
647.00,55.26285
648.00,55.28955
649.00,55.23812
650.00,55.18044
651.00,55.34880
652.00,55.40417
653.00,55.33333
654.00,55.33985
655.00,55.46536
656.00,55.52928
657.00,55.49816
658.00,55.60703
659.00,55.48862
660.00,55.66705
661.00,55.67235
662.00,55.59296
663.00,55.73732
664.00,55.70720
665.00,55.62073
666.00,55.87139
667.00,55.77213
668.00,55.86948
669.00,56.05702
670.00,56.05753
671.00,56.02342
672.00,56.06672
673.00,56.30854
674.00,56.26660
675.00,56.19103
676.00,56.22154
677.00,56.34106
678.00,56.40202
679.00,56.57891
680.00,56.43921
681.00,56.51553
682.00,56.71088
683.00,56.79308
684.00,56.80490
685.00,56.90505
686.00,56.90487
687.00,56.94488
688.00,57.23251
689.00,57.17381
690.00,57.21068
691.00,57.27656
692.00,57.42806
693.00,57.56516
694.00,57.55333
695.00,57.45800
696.00,57.57390
697.00,57.47529
698.00,57.86682
699.00,57.96561
700.00,57.76734
701.00,58.05367
702.00,57.99198
703.00,58.02744
704.00,58.14231
705.00,58.15183
706.00,58.08635
707.00,58.23873
708.00,58.13683
709.00,58.37024
710.00,58.42963
711.00,58.52798
712.00,58.62113
713.00,58.43922
714.00,58.58946
715.00,58.45602
716.00,58.70616
717.00,58.70988
718.00,58.90150
719.00,58.72715
720.00,58.69422
721.00,58.85985
722.00,58.96905
723.00,59.00035
724.00,58.98293
725.00,59.03661
726.00,58.96839
727.00,59.22131
728.00,59.09854
729.00,59.20470
730.00,59.60281
731.00,59.22281
732.00,59.31665
733.00,59.12358
734.00,59.20042
735.00,59.59722
736.00,59.39438
737.00,59.24546
738.00,59.32533
739.00,59.62097
740.00,59.47335
741.00,59.56711
742.00,59.10468
743.00,59.40881
744.00,59.56885
745.00,59.43559
746.00,59.75166
747.00,59.99342
748.00,59.54958
749.00,59.47883
750.00,59.40506
751.00,59.69201
752.00,59.84766
753.00,60.01245
754.00,59.58530
755.00,59.33034
756.00,60.04843
757.00,59.67653
758.00,59.60735
759.00,59.49723
760.00,59.93178
761.00,60.20412
762.00,60.24196
763.00,60.67891
764.00,60.43356
765.00,60.50051
766.00,60.58700
767.00,60.81948
768.00,60.85162
769.00,60.28503
770.00,60.22255
771.00,60.51666
772.00,60.35894
773.00,60.63911
774.00,60.77034
775.00,60.28089
776.00,60.48912
777.00,60.83530
778.00,60.32228
779.00,60.60191
780.00,60.51042
781.00,60.68808
782.00,60.79485
783.00,61.03861
784.00,61.03275
785.00,60.70358
786.00,61.05812
787.00,60.68591
788.00,60.73116
789.00,60.95111
790.00,60.90093
791.00,60.43734
792.00,60.93929
793.00,60.59785
794.00,61.37752
795.00,60.82879
796.00,61.18969
797.00,60.88644
798.00,61.04466
799.00,60.91738
800.00,60.83049
