"MN1094VSlowTrans - RawData"
"Wavelength nm.","T%"
190.00,1.95897
191.00,1.30520
192.00,0.98939
193.00,0.47328
194.00,0.56314
195.00,0.30188
196.00,0.26724
197.00,0.23876
198.00,0.24761
199.00,0.18661
200.00,0.17856
201.00,0.17011
202.00,0.16869
203.00,0.14262
204.00,0.12985
205.00,0.10570
206.00,0.10908
207.00,0.10718
208.00,0.09828
209.00,0.07920
210.00,0.07606
211.00,0.08440
212.00,0.08445
213.00,0.06890
214.00,0.06323
215.00,0.07228
216.00,0.06572
217.00,0.06566
218.00,0.06559
219.00,0.06809
220.00,0.06095
221.00,0.06195
222.00,0.06263
223.00,0.06101
224.00,0.06388
225.00,0.06233
226.00,0.07066
227.00,0.07300
228.00,0.07272
229.00,0.06575
230.00,0.07441
231.00,0.06898
232.00,0.07718
233.00,0.07941
234.00,0.08935
235.00,0.14751
236.00,0.34960
237.00,0.88067
238.00,2.13189
239.00,4.54292
240.00,8.10135
241.00,13.08682
242.00,18.64485
243.00,24.49931
244.00,29.90221
245.00,34.47405
246.00,38.14732
247.00,40.94452
248.00,43.07726
249.00,44.74560
250.00,46.04599
251.00,47.13264
252.00,47.92520
253.00,48.75867
254.00,49.49735
255.00,50.06747
256.00,50.65942
257.00,51.32377
258.00,51.83669
259.00,52.19745
260.00,52.67470
261.00,53.22164
262.00,53.55225
263.00,53.86655
264.00,54.11587
265.00,54.55022
266.00,54.77774
267.00,54.82384
268.00,55.20446
269.00,55.29602
270.00,55.38955
271.00,55.56670
272.00,55.66548
273.00,55.77581
274.00,55.97585
275.00,56.01853
276.00,56.28421
277.00,56.19846
278.00,56.40979
279.00,56.45198
280.00,56.55851
281.00,56.65256
282.00,56.67872
283.00,56.78062
284.00,56.88635
285.00,57.12808
286.00,57.15921
287.00,57.23709
288.00,57.24305
289.00,57.42735
290.00,57.58280
291.00,57.61532
292.00,57.72484
293.00,57.91134
294.00,57.91713
295.00,58.03258
296.00,58.15006
297.00,58.03415
298.00,58.27505
299.00,58.27177
300.00,58.32820
301.00,58.42072
302.00,58.49537
303.00,58.59712
304.00,58.62300
305.00,58.59691
306.00,58.72537
307.00,58.87643
308.00,58.77716
309.00,58.84242
310.00,58.93190
311.00,58.94473
312.00,59.00049
313.00,58.97634
314.00,59.06351
315.00,59.20796
316.00,59.13326
317.00,59.18786
318.00,59.28865
319.00,59.37281
320.00,59.43870
321.00,59.45793
322.00,59.49274
323.00,59.54612
324.00,59.44983
325.00,59.53971
326.00,59.58481
327.00,59.70581
328.00,59.58844
329.00,59.73601
330.00,59.85423
331.00,59.84386
332.00,59.68658
333.00,59.83049
334.00,59.67815
335.00,59.93977
336.00,60.07934
337.00,60.05741
338.00,60.05588
339.00,60.05036
340.00,59.94004
341.00,60.02682
342.00,60.03505
343.00,60.07953
344.00,60.10830
345.00,60.14755
346.00,60.22918
347.00,60.16751
348.00,60.07575
349.00,60.16054
350.00,60.14772
351.00,60.21476
352.00,60.29285
353.00,60.32518
354.00,60.36614
355.00,60.31234
356.00,60.38824
357.00,60.33152
358.00,60.40751
359.00,60.43190
360.00,60.39473
361.00,60.45625
362.00,60.45624
363.00,60.50744
364.00,60.49437
365.00,60.43593
366.00,60.45190
367.00,60.50298
368.00,60.51015
369.00,60.51434
370.00,60.55334
371.00,60.54617
372.00,60.76595
373.00,60.63910
374.00,60.57964
375.00,60.65601
376.00,60.64818
377.00,60.64410
378.00,60.63835
379.00,60.73605
380.00,60.67261
381.00,60.84907
382.00,60.76986
383.00,60.83321
384.00,60.79640
385.00,60.87523
386.00,60.88020
387.00,60.91681
388.00,60.88231
389.00,60.95714
390.00,60.95214
391.00,61.03216
392.00,61.06413
393.00,61.08274
394.00,61.11234
395.00,61.17621
396.00,61.08552
397.00,61.15606
398.00,61.14189
399.00,61.19528
400.00,61.19069
401.00,61.27260
402.00,61.29909
403.00,61.34639
404.00,61.33988
405.00,61.39330
406.00,61.46556
407.00,61.46901
408.00,61.45650
409.00,61.45614
410.00,61.40873
411.00,61.46332
412.00,61.50448
413.00,61.50191
414.00,61.48180
415.00,61.52938
416.00,61.63761
417.00,61.64182
418.00,61.63334
419.00,61.68028
420.00,61.70131
421.00,61.64288
422.00,61.67976
423.00,61.64707
424.00,61.61692
425.00,61.63978
426.00,61.63427
427.00,61.65813
428.00,61.69731
429.00,61.76299
430.00,61.81012
431.00,61.83628
432.00,61.85062
433.00,61.84337
434.00,61.89782
435.00,61.86543
436.00,61.89815
437.00,61.88872
438.00,61.83923
439.00,61.83832
440.00,61.85880
441.00,61.87415
442.00,61.88573
443.00,61.87803
444.00,61.90243
445.00,61.99480
446.00,62.00669
447.00,62.02670
448.00,62.04135
449.00,62.05876
450.00,62.08258
451.00,62.02816
452.00,62.04473
453.00,61.99812
454.00,61.99542
455.00,62.03762
456.00,62.01718
457.00,62.00719
458.00,62.03211
459.00,62.05045
460.00,62.04413
461.00,62.11073
462.00,62.10098
463.00,62.17984
464.00,62.23474
465.00,62.22947
466.00,62.22834
467.00,62.20424
468.00,62.26211
469.00,62.21334
470.00,62.17597
471.00,62.19416
472.00,62.18166
473.00,62.19286
474.00,62.18643
475.00,62.18647
476.00,62.22528
477.00,62.24665
478.00,62.26106
479.00,62.28502
480.00,62.32201
481.00,62.34685
482.00,62.34277
483.00,62.39174
484.00,62.36584
485.00,62.37424
486.00,62.40333
487.00,62.38289
488.00,62.38316
489.00,62.36744
490.00,62.34947
491.00,62.35248
492.00,62.32228
493.00,62.35458
494.00,62.36226
495.00,62.41710
496.00,62.41634
497.00,62.42513
498.00,62.46499
499.00,62.48842
500.00,62.51930
501.00,62.51720
502.00,62.51211
503.00,62.54144
504.00,62.50413
505.00,62.56634
506.00,62.57390
507.00,62.57685
508.00,62.56167
509.00,62.53077
510.00,62.54016
511.00,62.56960
512.00,62.53816
513.00,62.55805
514.00,62.54924
515.00,62.59212
516.00,62.57620
517.00,62.56756
518.00,62.56520
519.00,62.61876
520.00,62.61474
521.00,62.67385
522.00,62.65985
523.00,62.64110
524.00,62.67900
525.00,62.73583
526.00,62.70404
527.00,62.71317
528.00,62.71061
529.00,62.73808
530.00,62.76892
531.00,62.74952
532.00,62.74331
533.00,62.79070
534.00,62.75561
535.00,62.76850
536.00,62.80154
537.00,62.76383
538.00,62.73941
539.00,62.75934
540.00,62.76014
541.00,62.77826
542.00,62.78489
543.00,62.78718
544.00,62.80369
545.00,62.83672
546.00,62.84512
547.00,62.87862
548.00,62.87738
549.00,62.88595
550.00,62.92356
551.00,62.91351
552.00,62.94575
553.00,62.92897
554.00,62.93520
555.00,62.95291
556.00,62.99376
557.00,62.92393
558.00,62.97380
559.00,62.91963
560.00,62.98016
561.00,62.95609
562.00,62.95841
563.00,62.97332
564.00,62.95000
565.00,62.97004
566.00,62.98584
567.00,62.99636
568.00,63.00591
569.00,62.98509
570.00,63.04021
571.00,63.05408
572.00,63.04815
573.00,63.08337
574.00,63.07185
575.00,63.09032
576.00,63.13418
577.00,63.13652
578.00,63.15121
579.00,63.16481
580.00,63.15231
581.00,63.20326
582.00,63.17266
583.00,63.16429
584.00,63.18857
585.00,63.18370
586.00,63.15820
587.00,63.17915
588.00,63.16935
589.00,63.20139
590.00,63.19966
591.00,63.21388
592.00,63.20059
593.00,63.18635
594.00,63.21107
595.00,63.22821
596.00,63.19588
597.00,63.22121
598.00,63.25635
599.00,63.24934
600.00,63.26419
601.00,63.28816
602.00,63.29747
603.00,63.29636
604.00,63.31836
605.00,63.33728
606.00,63.36642
607.00,63.37541
608.00,63.39090
609.00,63.41991
610.00,63.41658
611.00,63.41617
612.00,63.43143
613.00,63.43306
614.00,63.42952
615.00,63.43879
616.00,63.46454
617.00,63.38050
618.00,63.43943
619.00,63.41437
620.00,63.42317
621.00,63.40241
622.00,63.43170
623.00,63.40156
624.00,63.44381
625.00,63.44872
626.00,63.46520
627.00,63.50437
628.00,63.47861
629.00,63.49244
630.00,63.48304
631.00,63.48240
632.00,63.51838
633.00,63.57165
634.00,63.56564
635.00,63.53614
636.00,63.57004
637.00,63.59112
638.00,63.65308
639.00,63.62328
640.00,63.64312
641.00,63.65935
642.00,63.69883
643.00,63.68427
644.00,63.71484
645.00,63.74761
646.00,63.73177
647.00,63.71202
648.00,63.73295
649.00,63.68865
650.00,63.71468
651.00,63.65414
652.00,63.67584
653.00,63.67589
654.00,63.70363
655.00,63.66062
656.00,63.69276
657.00,63.70708
658.00,63.67775
659.00,63.72314
660.00,63.73569
661.00,63.75223
662.00,63.72114
663.00,63.77028
664.00,63.75291
665.00,63.80506
666.00,63.85114
667.00,63.82172
668.00,63.85981
669.00,63.88285
670.00,63.86051
671.00,63.90795
672.00,63.92360
673.00,63.93383
674.00,64.00179
675.00,63.98731
676.00,64.00575
677.00,63.99941
678.00,64.03702
679.00,63.96096
680.00,64.03956
681.00,64.06196
682.00,64.05232
683.00,63.99922
684.00,63.98692
685.00,63.96816
686.00,64.06679
687.00,64.00341
688.00,63.99347
689.00,63.94309
690.00,64.04348
691.00,63.95499
692.00,63.90081
693.00,63.98758
694.00,63.99577
695.00,63.93748
696.00,63.94039
697.00,63.96526
698.00,64.05241
699.00,64.05820
700.00,64.12535
701.00,64.03444
702.00,64.03455
703.00,64.09099
704.00,64.15656
705.00,64.21323
706.00,64.17778
707.00,64.23191
708.00,64.21641
709.00,64.23369
710.00,64.29226
711.00,64.25975
712.00,64.30728
713.00,64.41215
714.00,64.37281
715.00,64.44910
716.00,64.37789
717.00,64.33038
718.00,64.32874
719.00,64.44527
720.00,64.33458
721.00,64.30969
722.00,64.41748
723.00,64.37869
724.00,64.45282
725.00,64.34784
726.00,64.37522
727.00,64.29352
728.00,64.32608
729.00,64.33713
730.00,64.41948
731.00,64.33438
732.00,64.24572
733.00,64.38106
734.00,64.21129
735.00,64.23424
736.00,64.36206
737.00,64.32347
738.00,64.44679
739.00,64.23997
740.00,64.31912
741.00,64.30547
742.00,64.30813
743.00,64.39704
744.00,64.39684
745.00,64.38469
746.00,64.45642
747.00,64.47155
748.00,64.54305
749.00,64.50859
750.00,64.63785
751.00,64.66512
752.00,64.60554
753.00,64.65255
754.00,64.77900
755.00,64.71369
756.00,64.76004
757.00,64.86685
758.00,64.85261
759.00,64.85034
760.00,64.76867
761.00,64.91656
762.00,64.90280
763.00,64.99808
764.00,64.92975
765.00,64.94031
766.00,65.01389
767.00,64.92527
768.00,65.04915
769.00,64.83334
770.00,64.77030
771.00,64.89918
772.00,64.80883
773.00,64.85431
774.00,64.82452
775.00,64.80567
776.00,64.61953
777.00,64.79706
778.00,64.61780
779.00,64.77253
780.00,64.59221
781.00,64.60173
782.00,64.55762
783.00,64.61645
784.00,64.58580
785.00,64.54170
786.00,64.64836
787.00,64.73173
788.00,64.60594
789.00,64.53896
790.00,64.60435
791.00,64.64913
792.00,64.69133
793.00,64.71370
794.00,64.72473
795.00,64.66730
796.00,64.82782
797.00,64.88396
798.00,64.99997
799.00,64.91242
800.00,64.88061
