"1345TestOnFront - RawData"
"Wavelength nm.","T%"
200.00,0.15862
201.00,0.10922
202.00,0.13577
203.00,0.06460
204.00,0.10782
205.00,0.07255
206.00,0.20350
207.00,0.16707
208.00,0.16808
209.00,0.26537
210.00,0.16674
211.00,0.29650
212.00,0.28297
213.00,0.34307
214.00,0.21994
215.00,0.25292
216.00,0.24244
217.00,0.27489
218.00,0.30500
219.00,0.38916
220.00,0.33038
221.00,0.32125
222.00,0.34904
223.00,0.48144
224.00,0.66032
225.00,0.67658
226.00,0.95356
227.00,1.18241
228.00,1.83641
229.00,2.62411
230.00,3.57261
231.00,4.89500
232.00,6.51926
233.00,7.94992
234.00,10.22482
235.00,12.98748
236.00,15.73997
237.00,18.53385
238.00,21.23329
239.00,24.10632
240.00,25.61070
241.00,27.87455
242.00,28.94419
243.00,30.24624
244.00,30.86622
245.00,30.90861
246.00,31.47132
247.00,31.58661
248.00,32.24172
249.00,32.69220
250.00,33.69545
251.00,33.61129
252.00,34.45196
253.00,34.82677
254.00,36.06451
255.00,36.22767
256.00,37.41871
257.00,37.20798
258.00,37.27484
259.00,38.28873
260.00,37.86726
261.00,37.96429
262.00,38.00663
263.00,38.77464
264.00,37.88030
265.00,37.53275
266.00,37.56467
267.00,37.26650
268.00,37.15898
269.00,36.55052
270.00,37.33611
271.00,36.25838
272.00,36.43970
273.00,36.54721
274.00,36.10662
275.00,35.70686
276.00,36.55431
277.00,35.79593
278.00,35.03601
279.00,36.16978
280.00,36.86612
281.00,36.31037
282.00,36.96963
283.00,36.17815
284.00,38.25903
285.00,37.54016
286.00,38.27479
287.00,39.52371
288.00,38.32273
289.00,39.47612
290.00,39.53544
291.00,40.25152
292.00,40.02858
293.00,40.16424
294.00,40.45449
295.00,41.28072
296.00,40.98833
297.00,40.59514
298.00,40.81756
299.00,40.69930
300.00,41.07074
301.00,40.51448
302.00,40.37598
303.00,41.06506
304.00,40.54175
305.00,40.31553
306.00,40.11480
307.00,41.04540
308.00,40.34539
309.00,39.80038
310.00,39.82965
311.00,39.93858
312.00,40.04489
313.00,39.67068
314.00,40.15025
315.00,39.82542
316.00,38.43137
317.00,39.52650
318.00,39.31168
319.00,38.69120
320.00,38.51024
321.00,38.70450
322.00,39.20107
323.00,39.40687
324.00,38.80146
325.00,38.74493
326.00,38.99722
327.00,39.87808
328.00,39.54169
329.00,39.09315
330.00,39.54054
331.00,39.55107
332.00,39.92125
333.00,40.04585
334.00,39.61441
335.00,40.89833
336.00,40.15135
337.00,40.53847
338.00,41.18696
339.00,40.91583
340.00,41.13011
341.00,41.78236
342.00,41.66776
343.00,42.35418
344.00,42.17297
345.00,42.56021
346.00,42.18822
347.00,43.23763
348.00,42.80927
349.00,43.17736
350.00,42.92029
351.00,43.11712
352.00,43.81355
353.00,43.94527
354.00,43.88905
355.00,44.43919
356.00,44.35646
357.00,44.01739
358.00,44.35106
359.00,44.91124
360.00,44.93933
361.00,44.49964
362.00,44.44537
363.00,45.40591
364.00,44.30822
365.00,44.33293
366.00,44.06542
367.00,44.32348
368.00,44.24994
369.00,44.02591
370.00,44.75121
371.00,44.37597
372.00,44.56838
373.00,43.96675
374.00,44.33863
375.00,44.10126
376.00,44.21077
377.00,44.06124
378.00,43.71170
379.00,43.51234
380.00,43.86002
381.00,43.37242
382.00,43.56573
383.00,43.43030
384.00,43.38625
385.00,43.11253
386.00,43.09155
387.00,43.12097
388.00,42.59337
389.00,42.69114
390.00,42.54447
391.00,42.35288
392.00,42.38594
393.00,42.26379
394.00,42.40178
395.00,42.24295
396.00,42.36404
397.00,42.07874
398.00,42.26075
399.00,42.28601
400.00,42.08339
401.00,42.12974
402.00,42.05526
403.00,42.38476
404.00,42.30627
405.00,42.24134
406.00,42.23393
407.00,42.24638
408.00,42.17598
409.00,42.44787
410.00,42.26626
411.00,42.46771
412.00,42.68897
413.00,42.34226
414.00,42.65811
415.00,42.75775
416.00,42.81135
417.00,43.00885
418.00,43.05940
419.00,43.36705
420.00,43.91939
421.00,44.07986
422.00,44.34901
423.00,44.57612
424.00,45.08627
425.00,45.34854
426.00,45.79748
427.00,45.66174
428.00,46.19761
429.00,46.55015
430.00,46.75189
431.00,46.75394
432.00,47.15076
433.00,47.48646
434.00,47.52029
435.00,47.81573
436.00,48.05766
437.00,48.15667
438.00,48.29431
439.00,48.58234
440.00,48.69594
441.00,48.71889
442.00,49.16151
443.00,49.38311
444.00,49.20172
445.00,49.45858
446.00,49.67604
447.00,49.95233
448.00,49.97007
449.00,50.19834
450.00,50.05485
451.00,50.34143
452.00,50.19829
453.00,50.63690
454.00,50.54974
455.00,50.74336
456.00,50.88763
457.00,51.10278
458.00,51.08266
459.00,51.24493
460.00,51.13464
461.00,51.37467
462.00,51.45466
463.00,51.59860
464.00,51.65790
465.00,51.53730
466.00,51.59790
467.00,51.91821
468.00,51.90730
469.00,51.99095
470.00,51.91800
471.00,52.03822
472.00,51.92024
473.00,51.80514
474.00,51.85512
475.00,52.31078
476.00,51.85396
477.00,52.08099
478.00,52.00798
479.00,52.09070
480.00,51.74468
481.00,51.86924
482.00,51.92520
483.00,51.59426
484.00,51.91255
485.00,51.69085
486.00,51.68028
487.00,51.60955
488.00,51.65831
489.00,51.73674
490.00,51.79130
491.00,51.26096
492.00,51.36285
493.00,51.57323
494.00,51.30660
495.00,51.26305
496.00,51.11529
497.00,51.20717
498.00,50.91376
499.00,51.02528
500.00,50.77976
501.00,50.74193
502.00,50.67178
503.00,50.71670
504.00,50.45714
505.00,50.35470
506.00,50.47415
507.00,50.27756
508.00,50.39720
509.00,49.86887
510.00,50.31268
511.00,49.96429
512.00,49.74976
513.00,49.85785
514.00,49.74102
515.00,49.59339
516.00,49.57826
517.00,49.50864
518.00,49.53896
519.00,49.43452
520.00,49.32131
521.00,49.35195
522.00,49.20867
523.00,49.02755
524.00,49.07449
525.00,48.98399
526.00,48.89532
527.00,48.67336
528.00,48.76483
529.00,48.67803
530.00,48.70505
531.00,48.48967
532.00,48.44030
533.00,48.53488
534.00,48.31400
535.00,48.44129
536.00,48.10954
537.00,48.15013
538.00,47.92959
539.00,47.82803
540.00,48.02668
541.00,47.83671
542.00,47.83075
543.00,47.81678
544.00,47.78795
545.00,47.80103
546.00,47.67274
547.00,47.77808
548.00,47.74264
549.00,47.42268
550.00,47.49272
551.00,47.52414
552.00,47.73178
553.00,47.32191
554.00,47.52274
555.00,47.42855
556.00,47.61217
557.00,47.46861
558.00,47.64973
559.00,47.55199
560.00,47.24837
561.00,47.32238
562.00,47.37325
563.00,47.77732
564.00,47.50659
565.00,47.34893
566.00,47.58317
567.00,47.64354
568.00,47.53710
569.00,47.43158
570.00,47.54958
571.00,47.39303
572.00,47.52048
573.00,47.55869
574.00,47.58979
575.00,47.57476
576.00,47.62599
577.00,47.54643
578.00,47.76846
579.00,47.75772
580.00,47.81294
581.00,47.71768
582.00,48.06180
583.00,47.97612
584.00,47.73363
585.00,48.00425
586.00,47.88446
587.00,48.31806
588.00,48.16544
589.00,47.89505
590.00,48.10474
591.00,48.29485
592.00,48.32699
593.00,48.30598
594.00,48.25176
595.00,48.44046
596.00,48.55419
597.00,48.69274
598.00,48.76724
599.00,48.92757
600.00,48.91702
601.00,48.62434
602.00,48.89019
603.00,48.88446
604.00,49.14662
605.00,48.99459
606.00,49.06472
607.00,49.28231
608.00,49.32074
609.00,49.40826
610.00,49.41715
611.00,49.48609
612.00,49.42607
613.00,49.70854
614.00,49.50897
615.00,49.75733
616.00,49.69511
617.00,50.12185
618.00,50.17021
619.00,50.22379
620.00,50.05108
621.00,50.12562
622.00,50.43018
623.00,50.66309
624.00,50.54273
625.00,50.56797
626.00,50.62118
627.00,50.91445
628.00,50.82287
629.00,51.21931
630.00,50.98354
631.00,51.20177
632.00,51.37835
633.00,51.54669
634.00,51.39375
635.00,51.77211
636.00,51.97486
637.00,51.83824
638.00,52.06217
639.00,52.31325
640.00,52.39741
641.00,52.53525
642.00,52.68476
643.00,52.74170
644.00,52.87826
645.00,53.19291
646.00,53.18954
647.00,53.27003
648.00,53.59517
649.00,53.72453
650.00,53.95515
651.00,53.89982
652.00,53.93985
653.00,54.31728
654.00,54.31111
655.00,54.38479
656.00,54.50086
657.00,54.71236
658.00,54.98626
659.00,54.85239
660.00,55.38856
661.00,55.79023
662.00,55.63674
663.00,55.82283
664.00,56.20267
665.00,56.12941
666.00,56.53667
667.00,56.53405
668.00,56.84566
669.00,57.07259
670.00,57.04759
671.00,57.59357
672.00,57.54855
673.00,57.92695
674.00,58.09893
675.00,58.33203
676.00,58.41331
677.00,59.33935
678.00,59.26782
679.00,59.64643
680.00,59.53602
681.00,59.73539
682.00,59.92443
683.00,60.03501
684.00,60.67634
685.00,60.72655
686.00,61.40492
687.00,61.47194
688.00,61.47737
689.00,61.70474
690.00,62.22606
691.00,62.25334
692.00,62.53509
693.00,62.69786
694.00,62.92636
695.00,63.09949
696.00,63.48224
697.00,63.70441
698.00,64.08421
699.00,64.19613
700.00,64.20029
701.00,64.63873
702.00,64.26170
703.00,64.73703
704.00,64.68775
705.00,64.91247
706.00,65.37634
707.00,65.48098
708.00,65.68093
709.00,65.68927
710.00,65.50367
711.00,65.68348
712.00,65.92276
713.00,66.23862
714.00,66.00121
715.00,66.27041
716.00,66.33920
717.00,66.98223
718.00,66.31149
719.00,66.97665
720.00,66.63685
721.00,66.36068
722.00,66.81802
723.00,66.61376
724.00,66.60619
725.00,66.89437
726.00,66.89843
727.00,67.22954
728.00,67.35006
729.00,66.75043
730.00,66.79661
731.00,67.16428
732.00,66.80360
733.00,67.14115
734.00,67.35720
735.00,67.21311
736.00,67.11882
737.00,66.87881
738.00,66.71059
739.00,66.92938
740.00,66.88836
741.00,67.42871
742.00,67.24578
743.00,67.48998
744.00,66.64661
745.00,67.12406
746.00,67.05764
747.00,67.15095
748.00,66.99983
749.00,67.11252
750.00,67.28153
751.00,67.46247
752.00,67.17452
753.00,67.98443
754.00,67.05679
755.00,67.11549
756.00,66.98757
757.00,67.79272
758.00,67.28488
759.00,67.28145
760.00,67.06272
761.00,66.88144
762.00,66.93369
763.00,66.83195
764.00,66.61500
765.00,66.75608
766.00,67.13951
767.00,67.63508
768.00,67.24622
769.00,67.33370
770.00,67.07566
771.00,67.24886
772.00,66.74693
773.00,66.99945
774.00,66.90812
775.00,67.07398
776.00,67.05682
777.00,66.97063
778.00,67.15360
779.00,66.47432
780.00,67.15420
781.00,67.02654
782.00,67.24259
783.00,67.10991
784.00,66.34325
785.00,66.59299
786.00,66.86400
787.00,67.38997
788.00,66.66887
789.00,67.28881
790.00,67.20935
791.00,67.41979
792.00,66.71068
793.00,66.38234
794.00,66.38060
795.00,66.74789
796.00,67.14604
797.00,66.13966
798.00,66.56765
799.00,66.39807
800.00,67.02070
