"MN1905VSlowTrans - RawData"
"Wavelength nm.","T%"
190.00,1.98632
191.00,1.41608
192.00,0.79118
193.00,0.65160
194.00,0.57102
195.00,0.43002
196.00,0.31881
197.00,0.32642
198.00,0.30247
199.00,0.28889
200.00,0.24189
201.00,0.22017
202.00,0.20680
203.00,0.15676
204.00,0.16237
205.00,0.19250
206.00,0.15659
207.00,0.13470
208.00,0.13664
209.00,0.12797
210.00,0.11727
211.00,0.11882
212.00,0.11411
213.00,0.10703
214.00,0.11076
215.00,0.10618
216.00,0.10635
217.00,0.10755
218.00,0.11312
219.00,0.10795
220.00,0.11122
221.00,0.10410
222.00,0.10318
223.00,0.10361
224.00,0.09671
225.00,0.10621
226.00,0.10221
227.00,0.10828
228.00,0.09677
229.00,0.10621
230.00,0.10178
231.00,0.10096
232.00,0.11841
233.00,0.11715
234.00,0.15266
235.00,0.28248
236.00,0.64815
237.00,1.50494
238.00,3.21177
239.00,6.03064
240.00,10.03547
241.00,15.25100
242.00,20.98363
243.00,26.69151
244.00,31.97716
245.00,36.34535
246.00,39.78868
247.00,42.42070
248.00,44.56989
249.00,46.09937
250.00,47.38184
251.00,48.48423
252.00,49.32196
253.00,50.08357
254.00,50.70655
255.00,51.33892
256.00,51.87465
257.00,52.48350
258.00,53.07603
259.00,53.44621
260.00,53.87027
261.00,54.32916
262.00,54.78823
263.00,55.09504
264.00,55.31312
265.00,55.66775
266.00,56.00266
267.00,56.13881
268.00,56.33122
269.00,56.37105
270.00,56.60961
271.00,56.61595
272.00,56.84828
273.00,57.07148
274.00,57.25511
275.00,57.23068
276.00,57.34766
277.00,57.46210
278.00,57.47121
279.00,57.61505
280.00,57.78582
281.00,57.93607
282.00,57.96304
283.00,58.00508
284.00,58.16659
285.00,58.39234
286.00,58.50530
287.00,58.51436
288.00,58.66253
289.00,58.80097
290.00,58.97351
291.00,59.03365
292.00,59.14725
293.00,59.24907
294.00,59.22804
295.00,59.46646
296.00,59.50800
297.00,59.53813
298.00,59.60051
299.00,59.70380
300.00,59.74343
301.00,59.83947
302.00,59.82489
303.00,59.98490
304.00,59.99912
305.00,60.09371
306.00,60.17129
307.00,60.36047
308.00,60.23453
309.00,60.24581
310.00,60.30269
311.00,60.46330
312.00,60.51090
313.00,60.41935
314.00,60.63281
315.00,60.52450
316.00,60.57901
317.00,60.54583
318.00,60.69854
319.00,60.86970
320.00,60.81249
321.00,60.77042
322.00,60.97719
323.00,61.00140
324.00,61.04026
325.00,60.99690
326.00,61.02231
327.00,61.15682
328.00,61.08626
329.00,61.09536
330.00,61.26351
331.00,61.19679
332.00,61.19896
333.00,61.29345
334.00,61.16109
335.00,61.39554
336.00,61.49089
337.00,61.41149
338.00,61.43282
339.00,61.46879
340.00,61.52200
341.00,61.56247
342.00,61.52823
343.00,61.59188
344.00,61.57678
345.00,61.61119
346.00,61.57838
347.00,61.60107
348.00,61.67941
349.00,61.65407
350.00,61.66695
351.00,61.80715
352.00,61.82585
353.00,61.92198
354.00,61.84372
355.00,61.86143
356.00,61.94360
357.00,61.90610
358.00,62.01951
359.00,61.92948
360.00,61.84216
361.00,62.00988
362.00,62.14951
363.00,62.12617
364.00,62.17450
365.00,62.18536
366.00,62.19125
367.00,62.16185
368.00,62.07678
369.00,62.21001
370.00,62.12352
371.00,62.11464
372.00,62.28401
373.00,62.25698
374.00,62.26014
375.00,62.41550
376.00,62.35107
377.00,62.41139
378.00,62.42098
379.00,62.44812
380.00,62.35793
381.00,62.47801
382.00,62.40134
383.00,62.43872
384.00,62.36454
385.00,62.45103
386.00,62.52623
387.00,62.56993
388.00,62.58705
389.00,62.72853
390.00,62.67155
391.00,62.74633
392.00,62.75808
393.00,62.75277
394.00,62.68679
395.00,62.66521
396.00,62.68198
397.00,62.70968
398.00,62.70606
399.00,62.75094
400.00,62.76183
401.00,62.86314
402.00,62.85974
403.00,62.91668
404.00,62.92001
405.00,62.95782
406.00,62.99458
407.00,62.99702
408.00,62.97290
409.00,62.98705
410.00,62.96852
411.00,62.93130
412.00,62.98641
413.00,62.99191
414.00,62.92052
415.00,63.03149
416.00,63.05144
417.00,63.08958
418.00,63.11799
419.00,63.17124
420.00,63.23925
421.00,63.23459
422.00,63.25350
423.00,63.26503
424.00,63.25529
425.00,63.24673
426.00,63.21258
427.00,63.24117
428.00,63.20698
429.00,63.21710
430.00,63.22852
431.00,63.23993
432.00,63.23556
433.00,63.26667
434.00,63.31739
435.00,63.35154
436.00,63.39488
437.00,63.42385
438.00,63.47623
439.00,63.48522
440.00,63.52190
441.00,63.50859
442.00,63.51119
443.00,63.49052
444.00,63.41369
445.00,63.45126
446.00,63.44536
447.00,63.39439
448.00,63.41148
449.00,63.36324
450.00,63.44801
451.00,63.44895
452.00,63.51513
453.00,63.54052
454.00,63.56138
455.00,63.62945
456.00,63.67312
457.00,63.69700
458.00,63.67469
459.00,63.73999
460.00,63.71343
461.00,63.73478
462.00,63.67562
463.00,63.67319
464.00,63.64629
465.00,63.63474
466.00,63.60079
467.00,63.62904
468.00,63.65934
469.00,63.64142
470.00,63.63736
471.00,63.64741
472.00,63.72107
473.00,63.73995
474.00,63.75901
475.00,63.82179
476.00,63.86624
477.00,63.86402
478.00,63.88789
479.00,63.91737
480.00,63.92844
481.00,63.94680
482.00,63.91402
483.00,63.91675
484.00,63.88507
485.00,63.87284
486.00,63.85099
487.00,63.84763
488.00,63.80913
489.00,63.81042
490.00,63.79874
491.00,63.82660
492.00,63.81390
493.00,63.86740
494.00,63.83294
495.00,63.92496
496.00,63.93771
497.00,63.99862
498.00,64.03982
499.00,64.07406
500.00,64.10403
501.00,64.11484
502.00,64.10920
503.00,64.16280
504.00,64.12258
505.00,64.17089
506.00,64.19128
507.00,64.13548
508.00,64.10150
509.00,64.10176
510.00,64.04536
511.00,64.04175
512.00,64.04181
513.00,64.03160
514.00,64.04176
515.00,64.06064
516.00,64.07805
517.00,64.00650
518.00,64.11866
519.00,64.11986
520.00,64.11571
521.00,64.19650
522.00,64.21909
523.00,64.24425
524.00,64.24316
525.00,64.29119
526.00,64.32303
527.00,64.31359
528.00,64.36906
529.00,64.40709
530.00,64.40922
531.00,64.40971
532.00,64.39936
533.00,64.40406
534.00,64.35835
535.00,64.34752
536.00,64.37267
537.00,64.29859
538.00,64.26938
539.00,64.28733
540.00,64.27487
541.00,64.27675
542.00,64.26867
543.00,64.24902
544.00,64.29041
545.00,64.27624
546.00,64.33517
547.00,64.35620
548.00,64.39846
549.00,64.40383
550.00,64.44103
551.00,64.46535
552.00,64.52892
553.00,64.53523
554.00,64.55194
555.00,64.55893
556.00,64.63180
557.00,64.59309
558.00,64.62808
559.00,64.62933
560.00,64.65914
561.00,64.64610
562.00,64.61014
563.00,64.61471
564.00,64.61771
565.00,64.59155
566.00,64.58681
567.00,64.58433
568.00,64.54270
569.00,64.50788
570.00,64.55730
571.00,64.57325
572.00,64.54177
573.00,64.55316
574.00,64.51497
575.00,64.51626
576.00,64.55119
577.00,64.59983
578.00,64.59963
579.00,64.63997
580.00,64.63301
581.00,64.70934
582.00,64.68895
583.00,64.71591
584.00,64.76892
585.00,64.77758
586.00,64.82346
587.00,64.81485
588.00,64.86250
589.00,64.86886
590.00,64.89955
591.00,64.91948
592.00,64.92138
593.00,64.91947
594.00,64.91873
595.00,64.93756
596.00,64.86591
597.00,64.87945
598.00,64.87334
599.00,64.89609
600.00,64.85193
601.00,64.86362
602.00,64.83120
603.00,64.78764
604.00,64.81301
605.00,64.80135
606.00,64.81445
607.00,64.78740
608.00,64.80459
609.00,64.84107
610.00,64.83808
611.00,64.86351
612.00,64.83037
613.00,64.90948
614.00,64.90291
615.00,64.93351
616.00,64.98768
617.00,64.97288
618.00,65.01114
619.00,65.03580
620.00,65.03668
621.00,65.09850
622.00,65.11744
623.00,65.12696
624.00,65.15723
625.00,65.15293
626.00,65.15739
627.00,65.22749
628.00,65.20329
629.00,65.18501
630.00,65.22806
631.00,65.22818
632.00,65.18106
633.00,65.26924
634.00,65.22800
635.00,65.20148
636.00,65.15247
637.00,65.17422
638.00,65.24410
639.00,65.18670
640.00,65.18272
641.00,65.17875
642.00,65.17070
643.00,65.15885
644.00,65.18192
645.00,65.21347
646.00,65.21882
647.00,65.15397
648.00,65.16392
649.00,65.18437
650.00,65.23077
651.00,65.18953
652.00,65.23386
653.00,65.26144
654.00,65.26302
655.00,65.23762
656.00,65.28687
657.00,65.36874
658.00,65.34790
659.00,65.40684
660.00,65.38751
661.00,65.42766
662.00,65.41401
663.00,65.44012
664.00,65.45254
665.00,65.50958
666.00,65.50683
667.00,65.49147
668.00,65.50781
669.00,65.53950
670.00,65.56949
671.00,65.57227
672.00,65.62025
673.00,65.55776
674.00,65.61472
675.00,65.62645
676.00,65.62259
677.00,65.66890
678.00,65.64916
679.00,65.53244
680.00,65.64822
681.00,65.62668
682.00,65.61610
683.00,65.63799
684.00,65.61860
685.00,65.60315
686.00,65.65483
687.00,65.67140
688.00,65.60242
689.00,65.54968
690.00,65.65911
691.00,65.58688
692.00,65.58402
693.00,65.64276
694.00,65.67608
695.00,65.55300
696.00,65.59298
697.00,65.67417
698.00,65.68784
699.00,65.61486
700.00,65.67540
701.00,65.69086
702.00,65.65637
703.00,65.69193
704.00,65.68465
705.00,65.75066
706.00,65.76113
707.00,65.75415
708.00,65.87650
709.00,65.78133
710.00,65.79972
711.00,65.83708
712.00,65.94220
713.00,65.91949
714.00,65.93390
715.00,65.98162
716.00,65.97724
717.00,65.94371
718.00,65.90287
719.00,66.08587
720.00,65.99917
721.00,65.93350
722.00,66.04893
723.00,66.02546
724.00,66.07960
725.00,66.12480
726.00,66.11866
727.00,65.97992
728.00,66.04204
729.00,66.11503
730.00,66.12949
731.00,66.08236
732.00,66.08487
733.00,66.14006
734.00,66.09922
735.00,66.01856
736.00,66.29628
737.00,66.15444
738.00,66.20274
739.00,66.15946
740.00,66.17550
741.00,66.14730
742.00,66.05620
743.00,66.11679
744.00,66.12665
745.00,66.15688
746.00,66.20358
747.00,66.11458
748.00,66.11319
749.00,66.05995
750.00,66.14135
751.00,66.18190
752.00,66.03205
753.00,66.14631
754.00,66.08429
755.00,66.07755
756.00,66.03776
757.00,66.19796
758.00,66.13620
759.00,66.17502
760.00,66.16420
761.00,66.17042
762.00,66.19842
763.00,66.28218
764.00,66.35640
765.00,66.25304
766.00,66.41969
767.00,66.40878
768.00,66.34466
769.00,66.21988
770.00,66.29801
771.00,66.40509
772.00,66.38626
773.00,66.37059
774.00,66.48266
775.00,66.37549
776.00,66.55688
777.00,66.44744
778.00,66.40235
779.00,66.64004
780.00,66.57101
781.00,66.54058
782.00,66.48492
783.00,66.55958
784.00,66.59067
785.00,66.66369
786.00,66.64341
787.00,66.84505
788.00,66.71995
789.00,66.65691
790.00,66.71489
791.00,66.69987
792.00,66.76469
793.00,66.63655
794.00,66.60944
795.00,66.63107
796.00,66.71013
797.00,66.82207
798.00,66.65497
799.00,66.71120
800.00,66.56846
