"SamDResinCoat - RawData"
"Wavelength nm.","T%"
200.00,0.63538
201.00,0.87144
202.00,0.83401
203.00,1.00043
204.00,0.82703
205.00,0.68678
206.00,0.75750
207.00,0.60500
208.00,0.53586
209.00,0.74786
210.00,0.63762
211.00,0.68378
212.00,0.70616
213.00,0.64227
214.00,0.64711
215.00,0.54645
216.00,0.56445
217.00,0.52544
218.00,0.59611
219.00,0.61981
220.00,0.62364
221.00,0.65021
222.00,0.74346
223.00,0.70000
224.00,0.69834
225.00,0.73974
226.00,0.66881
227.00,0.79086
228.00,0.84644
229.00,0.85569
230.00,0.83705
231.00,0.99006
232.00,1.05655
233.00,1.10566
234.00,1.20541
235.00,1.26516
236.00,1.44478
237.00,1.58367
238.00,1.72751
239.00,2.00398
240.00,2.22073
241.00,2.49919
242.00,2.90101
243.00,3.31509
244.00,3.84769
245.00,4.47270
246.00,5.15121
247.00,6.02966
248.00,6.99587
249.00,8.02229
250.00,9.32187
251.00,10.69509
252.00,12.31350
253.00,13.80116
254.00,15.48818
255.00,17.26549
256.00,19.17996
257.00,21.43967
258.00,23.34138
259.00,25.65618
260.00,27.83723
261.00,29.85405
262.00,31.93883
263.00,33.90018
264.00,35.69057
265.00,37.39311
266.00,38.86588
267.00,40.11719
268.00,40.91453
269.00,41.38047
270.00,42.10381
271.00,42.72594
272.00,43.15773
273.00,43.71507
274.00,43.80537
275.00,43.88412
276.00,44.81257
277.00,45.00214
278.00,45.61111
279.00,45.88619
280.00,46.61117
281.00,47.08562
282.00,47.58556
283.00,48.49824
284.00,49.12308
285.00,49.64215
286.00,50.28188
287.00,50.65742
288.00,51.31055
289.00,52.04013
290.00,52.76039
291.00,53.04926
292.00,53.37319
293.00,53.25004
294.00,53.97007
295.00,53.94703
296.00,54.14509
297.00,53.97043
298.00,54.27706
299.00,53.65421
300.00,53.63639
301.00,53.42938
302.00,53.08009
303.00,52.65111
304.00,52.24556
305.00,52.25805
306.00,52.13328
307.00,51.79813
308.00,52.07716
309.00,51.53245
310.00,51.27764
311.00,51.19149
312.00,51.21524
313.00,51.08393
314.00,51.30472
315.00,51.15691
316.00,51.38574
317.00,51.44631
318.00,51.59898
319.00,51.29626
320.00,51.88901
321.00,52.04524
322.00,51.73287
323.00,52.74366
324.00,53.03772
325.00,53.13887
326.00,53.41922
327.00,53.70240
328.00,53.99682
329.00,54.36098
330.00,54.65133
331.00,54.88046
332.00,54.94804
333.00,55.76499
334.00,55.57622
335.00,55.85215
336.00,56.09124
337.00,56.16843
338.00,56.40246
339.00,56.33677
340.00,56.67507
341.00,56.45617
342.00,56.70661
343.00,56.88388
344.00,56.53003
345.00,56.66687
346.00,57.03294
347.00,56.59276
348.00,56.57831
349.00,56.66988
350.00,55.89588
351.00,56.45688
352.00,56.24843
353.00,56.02779
354.00,55.95196
355.00,55.71516
356.00,55.43652
357.00,55.51657
358.00,55.18698
359.00,55.10299
360.00,54.88042
361.00,54.58880
362.00,54.68192
363.00,54.35435
364.00,54.70942
365.00,54.49628
366.00,54.14617
367.00,54.21073
368.00,54.00749
369.00,53.71453
370.00,54.08530
371.00,53.81671
372.00,53.96718
373.00,53.78035
374.00,53.74094
375.00,53.82830
376.00,53.82254
377.00,53.94866
378.00,53.88893
379.00,54.22410
380.00,54.16989
381.00,54.40186
382.00,54.33424
383.00,54.37065
384.00,54.71134
385.00,54.90437
386.00,54.73775
387.00,55.01577
388.00,55.16621
389.00,55.46416
390.00,55.52064
391.00,55.62505
392.00,55.79873
393.00,56.08227
394.00,56.13813
395.00,56.37034
396.00,56.56247
397.00,56.67917
398.00,56.95530
399.00,57.01880
400.00,57.31346
401.00,57.41370
402.00,57.59222
403.00,57.71537
404.00,57.94981
405.00,57.83830
406.00,58.00601
407.00,58.26238
408.00,58.46629
409.00,58.50126
410.00,58.64830
411.00,58.63381
412.00,58.65784
413.00,58.61720
414.00,58.79147
415.00,58.97167
416.00,59.03677
417.00,58.93571
418.00,58.97777
419.00,58.98591
420.00,58.84346
421.00,59.05157
422.00,58.90437
423.00,59.11013
424.00,59.01168
425.00,59.02873
426.00,58.88254
427.00,58.96948
428.00,58.80663
429.00,58.74348
430.00,58.69664
431.00,58.70441
432.00,58.65650
433.00,58.62378
434.00,58.53794
435.00,58.40642
436.00,58.19206
437.00,58.20305
438.00,58.12006
439.00,58.09563
440.00,58.00358
441.00,57.80405
442.00,57.78731
443.00,57.58370
444.00,57.63581
445.00,57.71624
446.00,57.43076
447.00,57.45168
448.00,57.35971
449.00,57.28241
450.00,57.16413
451.00,57.07448
452.00,56.97473
453.00,56.98432
454.00,56.96036
455.00,56.95405
456.00,56.86704
457.00,56.75697
458.00,56.75081
459.00,56.70905
460.00,56.53861
461.00,56.62022
462.00,56.56736
463.00,56.52946
464.00,56.42619
465.00,56.53976
466.00,56.54031
467.00,56.55043
468.00,56.54497
469.00,56.51312
470.00,56.64939
471.00,56.48302
472.00,56.60609
473.00,56.60359
474.00,56.52153
475.00,56.60149
476.00,56.59450
477.00,56.68535
478.00,56.74662
479.00,56.76312
480.00,56.87362
481.00,56.88687
482.00,56.84907
483.00,56.97931
484.00,56.98482
485.00,57.09122
486.00,57.15152
487.00,57.20019
488.00,57.30940
489.00,57.45984
490.00,57.42130
491.00,57.56694
492.00,57.57038
493.00,57.73464
494.00,57.85965
495.00,57.92759
496.00,58.01639
497.00,58.17477
498.00,58.19368
499.00,58.31806
500.00,58.33247
501.00,58.53692
502.00,58.49081
503.00,58.69986
504.00,58.68934
505.00,58.80732
506.00,58.95575
507.00,58.97093
508.00,59.12493
509.00,59.27154
510.00,59.38140
511.00,59.46184
512.00,59.46966
513.00,59.60455
514.00,59.55803
515.00,59.67823
516.00,59.91189
517.00,60.04071
518.00,59.97405
519.00,60.06715
520.00,60.21599
521.00,60.41815
522.00,60.31099
523.00,60.54986
524.00,60.51986
525.00,60.55011
526.00,60.72083
527.00,60.73902
528.00,60.86444
529.00,60.93097
530.00,61.00211
531.00,61.02609
532.00,61.07576
533.00,61.22294
534.00,61.24790
535.00,61.22778
536.00,61.33417
537.00,61.25677
538.00,61.35796
539.00,61.36885
540.00,61.43913
541.00,61.37649
542.00,61.55094
543.00,61.53725
544.00,61.57709
545.00,61.46408
546.00,61.60921
547.00,61.61392
548.00,61.63442
549.00,61.57629
550.00,61.76538
551.00,61.68103
552.00,61.78920
553.00,61.72913
554.00,61.73464
555.00,61.66667
556.00,61.59130
557.00,61.70402
558.00,61.65983
559.00,61.63334
560.00,61.67178
561.00,61.61200
562.00,61.60552
563.00,61.72700
564.00,61.71374
565.00,61.53532
566.00,61.58257
567.00,61.48933
568.00,61.45939
569.00,61.50155
570.00,61.42108
571.00,61.38160
572.00,61.46902
573.00,61.34587
574.00,61.42583
575.00,61.29774
576.00,61.43568
577.00,61.24035
578.00,61.28935
579.00,61.26251
580.00,61.11298
581.00,61.12638
582.00,61.19508
583.00,61.06969
584.00,61.07941
585.00,60.94529
586.00,61.00689
587.00,60.94002
588.00,60.91006
589.00,60.88709
590.00,60.85156
591.00,60.83477
592.00,60.76390
593.00,60.71338
594.00,60.64335
595.00,60.60301
596.00,60.57252
597.00,60.57613
598.00,60.50279
599.00,60.39119
600.00,60.48144
601.00,60.39792
602.00,60.41456
603.00,60.25243
604.00,60.23825
605.00,60.22293
606.00,60.23996
607.00,60.09423
608.00,60.12513
609.00,60.15137
610.00,60.08230
611.00,60.03940
612.00,60.02285
613.00,60.00385
614.00,59.98253
615.00,59.99224
616.00,59.94071
617.00,59.88563
618.00,59.87477
619.00,59.83821
620.00,59.85304
621.00,59.79721
622.00,59.71984
623.00,59.72024
624.00,59.77005
625.00,59.71700
626.00,59.74344
627.00,59.74273
628.00,59.63258
629.00,59.67906
630.00,59.81877
631.00,59.69238
632.00,59.59095
633.00,59.69551
634.00,59.63780
635.00,59.71339
636.00,59.70716
637.00,59.69049
638.00,59.74585
639.00,59.61591
640.00,59.60412
641.00,59.56073
642.00,59.59398
643.00,59.63526
644.00,59.69767
645.00,59.67147
646.00,59.67888
647.00,59.71270
648.00,59.75229
649.00,59.68675
650.00,59.65771
651.00,59.65096
652.00,59.79878
653.00,59.78944
654.00,59.76140
655.00,59.94878
656.00,59.76290
657.00,59.96794
658.00,59.81190
659.00,60.00637
660.00,60.02052
661.00,59.91697
662.00,59.89545
663.00,59.79868
664.00,60.10754
665.00,60.11744
666.00,60.00980
667.00,60.10011
668.00,60.14408
669.00,60.10578
670.00,60.32202
671.00,60.19710
672.00,60.38706
673.00,60.37204
674.00,60.45648
675.00,60.45853
676.00,60.45412
677.00,60.49456
678.00,60.49380
679.00,60.44970
680.00,60.50068
681.00,60.67089
682.00,60.72754
683.00,60.84189
684.00,60.84337
685.00,60.81690
686.00,60.87657
687.00,61.06566
688.00,60.87466
689.00,60.87076
690.00,60.94356
691.00,61.15945
692.00,61.16043
693.00,61.06771
694.00,61.10527
695.00,61.22866
696.00,61.29038
697.00,61.44385
698.00,61.41379
699.00,61.40128
700.00,61.46626
701.00,61.68537
702.00,61.64945
703.00,61.68026
704.00,61.79174
705.00,61.76255
706.00,61.80300
707.00,61.88726
708.00,61.94363
709.00,61.96739
710.00,62.24872
711.00,62.24090
712.00,61.97528
713.00,62.24779
714.00,62.04687
715.00,62.32601
716.00,62.37880
717.00,62.27505
718.00,62.39240
719.00,62.63582
720.00,62.69396
721.00,62.47134
722.00,62.56936
723.00,62.61615
724.00,62.57337
725.00,62.95808
726.00,62.82684
727.00,63.01422
728.00,62.94239
729.00,62.96741
730.00,62.92844
731.00,62.98009
732.00,63.26472
733.00,63.15905
734.00,63.34267
735.00,63.34066
736.00,63.33076
737.00,63.24543
738.00,63.32334
739.00,63.60624
740.00,63.49673
741.00,63.34491
742.00,64.00804
743.00,63.61732
744.00,63.52087
745.00,63.30745
746.00,63.72013
747.00,63.93604
748.00,64.06436
749.00,63.85896
750.00,64.21427
751.00,64.14530
752.00,63.98392
753.00,64.31332
754.00,64.23131
755.00,64.24781
756.00,64.51425
757.00,64.28020
758.00,64.65324
759.00,64.74264
760.00,64.60711
761.00,64.47604
762.00,64.18293
763.00,64.45252
764.00,64.64847
765.00,64.74026
766.00,65.00390
767.00,64.63318
768.00,64.96523
769.00,64.66057
770.00,64.84402
771.00,64.50617
772.00,64.63214
773.00,64.66513
774.00,65.29730
775.00,64.50599
776.00,65.12103
777.00,65.12585
778.00,65.23526
779.00,65.28862
780.00,65.19610
781.00,65.51046
782.00,65.14513
783.00,65.33283
784.00,64.99211
785.00,65.27095
786.00,65.57113
787.00,65.21052
788.00,65.17400
789.00,65.46709
790.00,65.51413
791.00,65.72033
792.00,65.30741
793.00,65.16373
794.00,65.15869
795.00,65.66039
796.00,65.46499
797.00,65.76158
798.00,65.56381
799.00,65.98355
800.00,65.50857
