"SamC - RawData"
"Wavelength nm.","T%"
200.00,0.36916
201.00,0.28613
202.00,0.21097
203.00,0.27811
204.00,0.16167
205.00,0.17058
206.00,0.06717
207.00,0.14865
208.00,0.16274
209.00,0.15301
210.00,0.12214
211.00,0.17315
212.00,0.16818
213.00,0.09350
214.00,0.11895
215.00,0.10608
216.00,0.16082
217.00,0.09748
218.00,0.11003
219.00,0.14134
220.00,0.08671
221.00,0.12571
222.00,0.13650
223.00,0.09330
224.00,0.09964
225.00,0.12125
226.00,0.13918
227.00,0.10746
228.00,0.10244
229.00,0.13422
230.00,0.14615
231.00,0.15211
232.00,0.17014
233.00,0.16598
234.00,0.17005
235.00,0.22147
236.00,0.23880
237.00,0.30410
238.00,0.35958
239.00,0.44488
240.00,0.59954
241.00,0.77914
242.00,1.00567
243.00,1.30036
244.00,1.67619
245.00,2.16934
246.00,2.78418
247.00,3.48580
248.00,4.23406
249.00,5.19797
250.00,6.31394
251.00,7.73792
252.00,9.29812
253.00,11.34354
254.00,13.60190
255.00,16.18890
256.00,19.08020
257.00,22.17713
258.00,25.42035
259.00,28.43773
260.00,31.46741
261.00,34.10107
262.00,37.28534
263.00,39.61030
264.00,41.87230
265.00,43.85608
266.00,45.69365
267.00,47.19278
268.00,48.30816
269.00,49.25542
270.00,49.79253
271.00,50.34815
272.00,50.57238
273.00,50.94497
274.00,50.94682
275.00,51.46984
276.00,51.89937
277.00,52.49230
278.00,52.92121
279.00,53.53509
280.00,54.12914
281.00,54.47365
282.00,55.33977
283.00,55.54128
284.00,56.29717
285.00,56.57327
286.00,57.04466
287.00,57.03378
288.00,57.07081
289.00,57.12052
290.00,56.82703
291.00,56.91553
292.00,56.69886
293.00,56.68541
294.00,56.51565
295.00,56.45233
296.00,56.66876
297.00,56.88083
298.00,56.77007
299.00,56.77179
300.00,56.84288
301.00,57.28329
302.00,57.62863
303.00,58.12014
304.00,58.60041
305.00,58.59798
306.00,59.38473
307.00,59.46146
308.00,59.40207
309.00,59.61958
310.00,59.76779
311.00,59.94702
312.00,59.91758
313.00,59.75870
314.00,59.67004
315.00,59.61587
316.00,59.39244
317.00,59.44869
318.00,59.10392
319.00,58.85017
320.00,58.92899
321.00,58.67692
322.00,58.45178
323.00,58.36235
324.00,58.78751
325.00,58.16873
326.00,58.44759
327.00,58.06632
328.00,58.49473
329.00,58.65600
330.00,58.72308
331.00,59.06948
332.00,58.98176
333.00,59.51126
334.00,59.58963
335.00,59.85438
336.00,60.21616
337.00,60.46464
338.00,60.44338
339.00,60.67768
340.00,60.94652
341.00,60.87296
342.00,61.07974
343.00,61.09409
344.00,61.26330
345.00,61.18808
346.00,60.92430
347.00,60.83606
348.00,60.79575
349.00,60.86972
350.00,60.54434
351.00,60.48584
352.00,60.31463
353.00,59.99479
354.00,59.87909
355.00,59.61120
356.00,59.30748
357.00,59.34620
358.00,59.20277
359.00,59.27567
360.00,59.14592
361.00,58.91860
362.00,58.98861
363.00,58.93312
364.00,58.93926
365.00,58.93196
366.00,59.06991
367.00,59.19018
368.00,59.07047
369.00,59.28735
370.00,59.54044
371.00,59.55489
372.00,59.89895
373.00,60.04086
374.00,60.43893
375.00,60.49533
376.00,60.48290
377.00,60.79538
378.00,60.97997
379.00,61.14557
380.00,61.27631
381.00,61.41245
382.00,61.54653
383.00,61.57988
384.00,61.77995
385.00,61.80832
386.00,61.82147
387.00,61.84811
388.00,61.73034
389.00,62.03899
390.00,61.83957
391.00,61.83978
392.00,61.64590
393.00,61.60928
394.00,61.44249
395.00,61.35605
396.00,61.21945
397.00,61.10789
398.00,60.96638
399.00,60.77866
400.00,60.72963
401.00,60.60209
402.00,60.37170
403.00,60.28866
404.00,60.32484
405.00,60.15843
406.00,60.04417
407.00,59.87957
408.00,59.85305
409.00,59.71897
410.00,59.75200
411.00,59.75926
412.00,59.63601
413.00,59.73002
414.00,59.69776
415.00,59.64520
416.00,59.67270
417.00,59.78983
418.00,59.92837
419.00,59.91186
420.00,60.04001
421.00,60.13293
422.00,60.22344
423.00,60.35810
424.00,60.49139
425.00,60.66254
426.00,60.82143
427.00,60.78104
428.00,61.01601
429.00,61.12203
430.00,61.29900
431.00,61.54033
432.00,61.64718
433.00,61.80278
434.00,61.95627
435.00,62.10853
436.00,62.10867
437.00,62.26709
438.00,62.35481
439.00,62.55079
440.00,62.60228
441.00,62.68789
442.00,62.71002
443.00,62.85342
444.00,62.82688
445.00,62.84539
446.00,62.93758
447.00,62.91887
448.00,62.91322
449.00,62.80339
450.00,62.83177
451.00,62.86001
452.00,62.77570
453.00,62.71850
454.00,62.66189
455.00,62.56136
456.00,62.50494
457.00,62.37723
458.00,62.31557
459.00,62.21052
460.00,62.04349
461.00,62.01296
462.00,61.98211
463.00,61.83304
464.00,61.74189
465.00,61.56849
466.00,61.48515
467.00,61.39659
468.00,61.40701
469.00,61.28811
470.00,61.15047
471.00,61.08178
472.00,60.93979
473.00,60.88380
474.00,60.87837
475.00,60.71206
476.00,60.79565
477.00,60.67742
478.00,60.65988
479.00,60.58574
480.00,60.62436
481.00,60.57649
482.00,60.64711
483.00,60.58514
484.00,60.63598
485.00,60.60346
486.00,60.63507
487.00,60.63891
488.00,60.63638
489.00,60.73012
490.00,60.84219
491.00,60.97316
492.00,60.82215
493.00,61.02686
494.00,61.14675
495.00,61.10902
496.00,61.21100
497.00,61.38169
498.00,61.39773
499.00,61.57539
500.00,61.68498
501.00,61.71113
502.00,61.80545
503.00,61.99784
504.00,62.14761
505.00,62.22258
506.00,62.32878
507.00,62.29690
508.00,62.49766
509.00,62.61839
510.00,62.79427
511.00,62.87738
512.00,62.89389
513.00,63.10441
514.00,63.14384
515.00,63.28110
516.00,63.35761
517.00,63.44368
518.00,63.51851
519.00,63.55160
520.00,63.65567
521.00,63.67165
522.00,63.75438
523.00,63.77755
524.00,63.92294
525.00,63.88183
526.00,63.95711
527.00,64.04717
528.00,64.06399
529.00,64.13808
530.00,64.11062
531.00,64.13683
532.00,64.09984
533.00,64.11613
534.00,64.19634
535.00,64.09080
536.00,64.10245
537.00,64.12240
538.00,64.06807
539.00,63.97359
540.00,64.01016
541.00,63.98942
542.00,63.95136
543.00,63.83933
544.00,63.84174
545.00,63.79083
546.00,63.70791
547.00,63.68888
548.00,63.61043
549.00,63.60620
550.00,63.41836
551.00,63.45965
552.00,63.34700
553.00,63.29184
554.00,63.21641
555.00,63.15802
556.00,63.10070
557.00,63.03964
558.00,62.97497
559.00,62.84514
560.00,62.87755
561.00,62.75746
562.00,62.62219
563.00,62.61729
564.00,62.51044
565.00,62.51503
566.00,62.44716
567.00,62.32669
568.00,62.29497
569.00,62.27993
570.00,62.26844
571.00,62.15070
572.00,62.14868
573.00,62.08747
574.00,62.07514
575.00,62.04460
576.00,61.99269
577.00,61.94057
578.00,61.92442
579.00,61.87209
580.00,61.86062
581.00,61.88249
582.00,61.79303
583.00,61.89536
584.00,61.89470
585.00,61.92573
586.00,61.86182
587.00,61.90539
588.00,61.94851
589.00,61.90157
590.00,61.88525
591.00,61.90296
592.00,61.97488
593.00,61.98593
594.00,62.06303
595.00,62.17691
596.00,62.10489
597.00,62.19950
598.00,62.20271
599.00,62.34714
600.00,62.33449
601.00,62.40658
602.00,62.44105
603.00,62.44054
604.00,62.55317
605.00,62.70182
606.00,62.70158
607.00,62.70574
608.00,62.82818
609.00,62.88232
610.00,62.94451
611.00,63.01442
612.00,63.10015
613.00,63.14788
614.00,63.23868
615.00,63.34687
616.00,63.39523
617.00,63.42446
618.00,63.54414
619.00,63.63547
620.00,63.78626
621.00,63.85491
622.00,63.93038
623.00,64.01124
624.00,63.99758
625.00,64.17288
626.00,64.21507
627.00,64.28339
628.00,64.39269
629.00,64.28986
630.00,64.45870
631.00,64.54991
632.00,64.61126
633.00,64.70920
634.00,64.75865
635.00,64.82480
636.00,64.86298
637.00,64.94485
638.00,65.01994
639.00,65.04232
640.00,65.18780
641.00,65.26068
642.00,65.25887
643.00,65.23825
644.00,65.36615
645.00,65.37968
646.00,65.48189
647.00,65.49169
648.00,65.53823
649.00,65.63764
650.00,65.61630
651.00,65.59899
652.00,65.63920
653.00,65.70988
654.00,65.71683
655.00,65.76382
656.00,65.74388
657.00,65.77220
658.00,65.80223
659.00,65.81119
660.00,65.88169
661.00,65.87762
662.00,65.88743
663.00,65.82281
664.00,65.81689
665.00,65.66992
666.00,65.85327
667.00,65.80861
668.00,65.87085
669.00,65.82574
670.00,65.76157
671.00,65.81715
672.00,65.76117
673.00,65.66438
674.00,65.82325
675.00,65.76843
676.00,65.67388
677.00,65.65574
678.00,65.52570
679.00,65.58149
680.00,65.57001
681.00,65.46615
682.00,65.56593
683.00,65.47945
684.00,65.42999
685.00,65.51478
686.00,65.48680
687.00,65.24716
688.00,65.43881
689.00,65.31851
690.00,65.31762
691.00,65.25617
692.00,65.27164
693.00,65.21661
694.00,65.04110
695.00,65.04213
696.00,65.07748
697.00,64.90388
698.00,64.99304
699.00,64.99124
700.00,64.96402
701.00,64.86497
702.00,64.71500
703.00,64.67721
704.00,64.61030
705.00,64.77531
706.00,64.66200
707.00,64.61331
708.00,64.48065
709.00,64.53322
710.00,64.51300
711.00,64.45509
712.00,64.47600
713.00,64.28937
714.00,64.33531
715.00,64.30326
716.00,64.47618
717.00,64.15455
718.00,64.31620
719.00,64.19555
720.00,64.17983
721.00,64.13351
722.00,64.27027
723.00,64.04697
724.00,64.04249
725.00,64.06553
726.00,64.01702
727.00,64.03968
728.00,63.99190
729.00,64.00295
730.00,63.78655
731.00,63.90615
732.00,63.90231
733.00,63.78407
734.00,63.85695
735.00,63.88171
736.00,63.91976
737.00,64.15244
738.00,63.99090
739.00,63.72052
740.00,63.98628
741.00,63.76805
742.00,63.84972
743.00,63.78786
744.00,63.92582
745.00,63.73279
746.00,63.79791
747.00,63.86095
748.00,63.82787
749.00,63.99120
750.00,63.93597
751.00,64.02090
752.00,64.04653
753.00,63.97194
754.00,64.02353
755.00,63.93613
756.00,63.97524
757.00,63.95516
758.00,64.14549
759.00,64.26688
760.00,63.93799
761.00,63.99346
762.00,64.02451
763.00,64.06229
764.00,64.14999
765.00,64.07996
766.00,64.25566
767.00,64.28105
768.00,64.26927
769.00,64.26785
770.00,64.42499
771.00,64.28868
772.00,64.50024
773.00,64.58654
774.00,64.73720
775.00,64.79141
776.00,64.77795
777.00,64.68721
778.00,64.68683
779.00,64.40232
780.00,64.65851
781.00,64.50455
782.00,64.71842
783.00,65.27263
784.00,64.72834
785.00,64.99732
786.00,64.98635
787.00,65.18187
788.00,65.16896
789.00,65.17304
790.00,65.32129
791.00,65.23407
792.00,65.45329
793.00,65.30544
794.00,65.29415
795.00,65.38782
796.00,65.39794
797.00,65.28287
798.00,65.58193
799.00,65.66148
800.00,65.91702
