"SamD - RawData"
"Wavelength nm.","T%"
200.00,0.13963
201.00,0.20551
202.00,0.31187
203.00,0.10220
204.00,0.10384
205.00,0.11145
206.00,0.06017
207.00,0.15117
208.00,0.06736
209.00,0.15134
210.00,0.08623
211.00,0.05990
212.00,0.11421
213.00,0.07876
214.00,0.08070
215.00,0.08321
216.00,0.05802
217.00,0.08531
218.00,0.08502
219.00,0.06629
220.00,0.04901
221.00,0.10747
222.00,0.04108
223.00,0.06031
224.00,0.07653
225.00,0.08199
226.00,0.12193
227.00,0.09995
228.00,0.09874
229.00,0.13224
230.00,0.13891
231.00,0.19938
232.00,0.22196
233.00,0.27066
234.00,0.38868
235.00,0.48359
236.00,0.60428
237.00,0.76707
238.00,0.91433
239.00,1.10914
240.00,1.30674
241.00,1.57118
242.00,1.81366
243.00,2.19458
244.00,2.58322
245.00,3.08956
246.00,3.65086
247.00,4.26952
248.00,5.04646
249.00,5.92695
250.00,7.09980
251.00,8.59929
252.00,10.35108
253.00,12.53080
254.00,15.28023
255.00,18.30600
256.00,21.95716
257.00,25.57180
258.00,29.56317
259.00,33.12047
260.00,36.37301
261.00,39.15295
262.00,41.03319
263.00,42.89474
264.00,44.42201
265.00,45.82175
266.00,47.35164
267.00,49.19410
268.00,50.59482
269.00,52.01122
270.00,53.02292
271.00,53.94961
272.00,54.11572
273.00,54.41163
274.00,53.88975
275.00,53.76590
276.00,53.29880
277.00,53.26564
278.00,53.01347
279.00,52.93884
280.00,53.15669
281.00,53.35423
282.00,54.13230
283.00,54.57688
284.00,55.27928
285.00,56.25332
286.00,56.87045
287.00,57.16355
288.00,57.36858
289.00,57.95204
290.00,57.71638
291.00,57.72099
292.00,57.39667
293.00,57.20980
294.00,56.67272
295.00,56.43726
296.00,56.28664
297.00,56.22973
298.00,56.02942
299.00,55.85726
300.00,55.76568
301.00,56.01084
302.00,56.40004
303.00,56.95971
304.00,57.41367
305.00,57.67559
306.00,58.52569
307.00,58.49843
308.00,59.14130
309.00,59.42764
310.00,59.56234
311.00,59.88699
312.00,60.04788
313.00,59.71853
314.00,59.55003
315.00,59.33345
316.00,59.15958
317.00,58.88271
318.00,58.24373
319.00,58.11541
320.00,58.07679
321.00,57.62936
322.00,57.35834
323.00,57.61307
324.00,57.66686
325.00,57.08665
326.00,57.55590
327.00,57.43747
328.00,57.94768
329.00,57.86380
330.00,58.51234
331.00,58.68138
332.00,59.04010
333.00,59.39699
334.00,59.79787
335.00,59.94622
336.00,60.26686
337.00,60.60335
338.00,60.49372
339.00,60.74603
340.00,60.94128
341.00,60.90287
342.00,60.98090
343.00,60.63682
344.00,60.76235
345.00,60.42325
346.00,60.32490
347.00,59.86580
348.00,59.92572
349.00,59.41516
350.00,59.25696
351.00,59.14539
352.00,58.71599
353.00,58.63871
354.00,58.50502
355.00,58.34422
356.00,58.33788
357.00,58.25835
358.00,58.28492
359.00,58.46393
360.00,58.42730
361.00,58.50642
362.00,58.64092
363.00,58.72073
364.00,59.04251
365.00,59.38587
366.00,59.37113
367.00,59.69684
368.00,59.94661
369.00,60.14732
370.00,60.46646
371.00,60.44350
372.00,60.87855
373.00,61.06804
374.00,61.34562
375.00,61.34848
376.00,61.29082
377.00,61.43432
378.00,61.59794
379.00,61.42763
380.00,61.46528
381.00,61.16750
382.00,61.19780
383.00,61.12303
384.00,60.95038
385.00,60.76449
386.00,60.59039
387.00,60.27825
388.00,60.14429
389.00,60.06631
390.00,59.88501
391.00,59.70807
392.00,59.40017
393.00,59.43404
394.00,59.24050
395.00,59.01362
396.00,58.91434
397.00,58.82474
398.00,58.89135
399.00,58.79739
400.00,58.85776
401.00,58.88274
402.00,58.80414
403.00,58.92066
404.00,59.11014
405.00,59.17003
406.00,59.23851
407.00,59.45017
408.00,59.49854
409.00,59.74278
410.00,59.93246
411.00,60.18890
412.00,60.26664
413.00,60.51599
414.00,60.68493
415.00,60.79663
416.00,61.06445
417.00,61.19864
418.00,61.42570
419.00,61.48698
420.00,61.56303
421.00,61.81957
422.00,61.87837
423.00,61.93276
424.00,61.97958
425.00,62.14284
426.00,62.10997
427.00,62.11733
428.00,62.10366
429.00,62.23046
430.00,62.14569
431.00,62.05547
432.00,61.96799
433.00,61.91797
434.00,61.75570
435.00,61.68630
436.00,61.49581
437.00,61.42888
438.00,61.30245
439.00,61.20252
440.00,61.05133
441.00,60.93044
442.00,60.74232
443.00,60.61122
444.00,60.60988
445.00,60.37419
446.00,60.22184
447.00,60.18955
448.00,60.06308
449.00,59.95333
450.00,59.96839
451.00,59.88169
452.00,59.78577
453.00,59.74497
454.00,59.71839
455.00,59.62442
456.00,59.67440
457.00,59.67381
458.00,59.74005
459.00,59.72049
460.00,59.76054
461.00,59.82435
462.00,59.95310
463.00,59.95631
464.00,60.12167
465.00,60.13802
466.00,60.28560
467.00,60.38490
468.00,60.60624
469.00,60.76083
470.00,60.86432
471.00,60.90522
472.00,61.01742
473.00,61.22959
474.00,61.39933
475.00,61.46544
476.00,61.65671
477.00,61.75484
478.00,61.93328
479.00,62.04835
480.00,62.21460
481.00,62.25147
482.00,62.50441
483.00,62.53490
484.00,62.61654
485.00,62.72879
486.00,62.87020
487.00,62.88759
488.00,62.91426
489.00,62.99479
490.00,63.11342
491.00,63.18846
492.00,63.11243
493.00,63.17171
494.00,63.20271
495.00,63.19425
496.00,63.15995
497.00,63.14039
498.00,63.08842
499.00,63.10208
500.00,63.11343
501.00,62.96919
502.00,62.94946
503.00,62.92295
504.00,62.82848
505.00,62.75586
506.00,62.65517
507.00,62.54716
508.00,62.50491
509.00,62.41446
510.00,62.36128
511.00,62.22702
512.00,62.10135
513.00,62.08414
514.00,61.95206
515.00,61.78550
516.00,61.73896
517.00,61.69634
518.00,61.57102
519.00,61.48838
520.00,61.51216
521.00,61.29759
522.00,61.27681
523.00,61.28018
524.00,61.14509
525.00,61.15435
526.00,61.05729
527.00,61.16188
528.00,60.96914
529.00,60.98096
530.00,60.96094
531.00,60.90076
532.00,60.87773
533.00,60.88557
534.00,60.92209
535.00,60.90512
536.00,60.93319
537.00,60.96443
538.00,61.04386
539.00,60.95327
540.00,61.10343
541.00,61.06718
542.00,61.15484
543.00,61.17010
544.00,61.25407
545.00,61.34992
546.00,61.37568
547.00,61.48846
548.00,61.55663
549.00,61.66095
550.00,61.75008
551.00,61.89629
552.00,61.93164
553.00,62.02953
554.00,62.13812
555.00,62.19946
556.00,62.35700
557.00,62.44288
558.00,62.53933
559.00,62.58757
560.00,62.75502
561.00,62.85026
562.00,62.87722
563.00,63.04845
564.00,63.08578
565.00,63.26563
566.00,63.28092
567.00,63.38185
568.00,63.47321
569.00,63.59015
570.00,63.68734
571.00,63.73219
572.00,63.85452
573.00,63.90961
574.00,63.98984
575.00,64.08471
576.00,64.07719
577.00,64.17103
578.00,64.21959
579.00,64.29226
580.00,64.31970
581.00,64.38252
582.00,64.37152
583.00,64.47842
584.00,64.47801
585.00,64.51494
586.00,64.51954
587.00,64.56410
588.00,64.59147
589.00,64.54149
590.00,64.51520
591.00,64.54554
592.00,64.58255
593.00,64.59503
594.00,64.48181
595.00,64.52930
596.00,64.42283
597.00,64.47952
598.00,64.43548
599.00,64.45088
600.00,64.35023
601.00,64.30637
602.00,64.31946
603.00,64.24838
604.00,64.19719
605.00,64.15112
606.00,64.07682
607.00,64.05277
608.00,64.03996
609.00,63.92367
610.00,63.88669
611.00,63.85964
612.00,63.76859
613.00,63.70159
614.00,63.61894
615.00,63.58153
616.00,63.53266
617.00,63.38351
618.00,63.39777
619.00,63.31558
620.00,63.30128
621.00,63.24927
622.00,63.20565
623.00,63.08849
624.00,63.02832
625.00,63.05838
626.00,62.94325
627.00,62.89640
628.00,62.84718
629.00,62.69827
630.00,62.73068
631.00,62.68163
632.00,62.62447
633.00,62.62215
634.00,62.54343
635.00,62.62918
636.00,62.50507
637.00,62.49487
638.00,62.44517
639.00,62.49161
640.00,62.45375
641.00,62.46989
642.00,62.39768
643.00,62.41823
644.00,62.39465
645.00,62.37263
646.00,62.38595
647.00,62.42741
648.00,62.36706
649.00,62.46412
650.00,62.40603
651.00,62.46488
652.00,62.35573
653.00,62.48288
654.00,62.50523
655.00,62.58008
656.00,62.54523
657.00,62.55150
658.00,62.64035
659.00,62.67219
660.00,62.70477
661.00,62.69246
662.00,62.77317
663.00,62.83783
664.00,62.90538
665.00,62.83972
666.00,62.96233
667.00,63.15973
668.00,63.06928
669.00,63.17471
670.00,63.12603
671.00,63.24812
672.00,63.31087
673.00,63.28766
674.00,63.49494
675.00,63.45820
676.00,63.47033
677.00,63.56172
678.00,63.64445
679.00,63.72700
680.00,63.82868
681.00,63.76418
682.00,63.98112
683.00,64.05914
684.00,64.09342
685.00,64.23780
686.00,64.33241
687.00,64.18395
688.00,64.47899
689.00,64.47011
690.00,64.55921
691.00,64.62224
692.00,64.67034
693.00,64.72415
694.00,64.81349
695.00,64.79723
696.00,64.92418
697.00,64.96824
698.00,65.18419
699.00,65.06565
700.00,65.15731
701.00,65.17385
702.00,65.19952
703.00,65.27630
704.00,65.32692
705.00,65.44304
706.00,65.44050
707.00,65.69971
708.00,65.59018
709.00,65.73325
710.00,65.75454
711.00,65.72859
712.00,65.87040
713.00,65.69325
714.00,65.86556
715.00,66.09923
716.00,66.00780
717.00,65.96516
718.00,66.20275
719.00,66.17838
720.00,66.16221
721.00,66.26507
722.00,66.44808
723.00,66.05946
724.00,66.20231
725.00,66.29733
726.00,66.34499
727.00,66.30800
728.00,66.45423
729.00,66.51495
730.00,66.27031
731.00,66.25611
732.00,66.21219
733.00,66.41800
734.00,66.30268
735.00,66.31257
736.00,66.50248
737.00,66.44600
738.00,66.43844
739.00,66.25307
740.00,66.36380
741.00,66.26803
742.00,66.28224
743.00,66.19545
744.00,66.31331
745.00,66.17446
746.00,66.23150
747.00,66.16199
748.00,66.24996
749.00,66.12583
750.00,66.47140
751.00,66.21073
752.00,66.37849
753.00,66.17442
754.00,66.23570
755.00,65.95342
756.00,66.00450
757.00,66.02404
758.00,66.01278
759.00,66.16611
760.00,66.03763
761.00,65.93838
762.00,65.83214
763.00,65.95547
764.00,65.96305
765.00,65.76456
766.00,65.70824
767.00,65.64276
768.00,65.81345
769.00,65.73473
770.00,65.63310
771.00,65.61319
772.00,65.44766
773.00,65.57162
774.00,65.60675
775.00,65.59280
776.00,65.67852
777.00,65.40193
778.00,65.41294
779.00,65.43866
780.00,65.32214
781.00,65.09137
782.00,65.18177
783.00,65.47745
784.00,65.39804
785.00,64.93265
786.00,65.10797
787.00,65.34578
788.00,65.25862
789.00,65.12277
790.00,65.13375
791.00,64.97663
792.00,65.06979
793.00,65.09011
794.00,64.76061
795.00,64.88150
796.00,64.94567
797.00,64.59157
798.00,64.60186
799.00,64.88789
800.00,64.62401
