"GSW7 - RawData"
"Wavelength nm.","T%"
200.00,0.42024
201.00,0.65176
202.00,0.82871
203.00,0.46618
204.00,0.40603
205.00,0.22477
206.00,0.25279
207.00,0.35082
208.00,0.53019
209.00,0.38005
210.00,0.33546
211.00,0.37807
212.00,0.20976
213.00,0.38535
214.00,0.22272
215.00,0.20079
216.00,0.19971
217.00,0.26223
218.00,0.21394
219.00,0.22939
220.00,0.17067
221.00,0.27817
222.00,0.28503
223.00,0.22668
224.00,0.27921
225.00,0.19907
226.00,0.23648
227.00,0.29632
228.00,0.33892
229.00,0.33013
230.00,0.34177
231.00,0.37826
232.00,0.45157
233.00,0.58527
234.00,0.78101
235.00,0.93486
236.00,1.25373
237.00,1.62269
238.00,2.08049
239.00,2.74044
240.00,3.45240
241.00,4.45716
242.00,5.53778
243.00,6.94769
244.00,8.33093
245.00,10.15319
246.00,12.25729
247.00,14.36713
248.00,16.91509
249.00,19.74243
250.00,23.10745
251.00,26.48832
252.00,29.26603
253.00,32.56287
254.00,34.81312
255.00,36.82826
256.00,38.42028
257.00,39.54461
258.00,41.08090
259.00,42.03655
260.00,43.67428
261.00,44.99527
262.00,46.25350
263.00,47.74788
264.00,48.90698
265.00,49.23381
266.00,49.59294
267.00,49.74354
268.00,50.01097
269.00,49.80464
270.00,49.65142
271.00,49.68843
272.00,49.20342
273.00,49.64512
274.00,49.79025
275.00,50.46165
276.00,50.81909
277.00,51.72493
278.00,52.41440
279.00,53.25547
280.00,53.80437
281.00,53.79925
282.00,54.28603
283.00,54.48650
284.00,54.59087
285.00,54.53616
286.00,54.63799
287.00,54.48448
288.00,53.88905
289.00,53.73880
290.00,53.66072
291.00,53.68625
292.00,53.66356
293.00,53.63075
294.00,53.52194
295.00,54.08865
296.00,53.93335
297.00,54.56966
298.00,55.36891
299.00,55.43690
300.00,56.35068
301.00,56.43042
302.00,56.81662
303.00,56.75377
304.00,57.39946
305.00,57.20170
306.00,57.53767
307.00,57.13828
308.00,57.10887
309.00,56.88475
310.00,56.61768
311.00,56.34604
312.00,56.40104
313.00,56.16103
314.00,55.74535
315.00,55.43374
316.00,55.33328
317.00,55.23378
318.00,55.02020
319.00,55.06777
320.00,55.19782
321.00,55.79041
322.00,56.22483
323.00,56.02265
324.00,56.35576
325.00,56.41870
326.00,56.88610
327.00,57.15464
328.00,57.77383
329.00,57.80205
330.00,58.11594
331.00,58.29893
332.00,58.65561
333.00,58.36830
334.00,58.17669
335.00,58.47369
336.00,59.02556
337.00,58.51984
338.00,57.91632
339.00,58.22992
340.00,58.04636
341.00,57.38370
342.00,57.33244
343.00,57.50884
344.00,57.25480
345.00,56.66686
346.00,56.74427
347.00,56.37822
348.00,56.53853
349.00,56.45173
350.00,56.53085
351.00,56.53999
352.00,56.61907
353.00,56.83132
354.00,56.63466
355.00,56.91634
356.00,57.24233
357.00,57.00718
358.00,57.48925
359.00,57.75488
360.00,58.04821
361.00,58.12087
362.00,58.00322
363.00,58.48806
364.00,58.83683
365.00,59.00314
366.00,59.09587
367.00,59.34594
368.00,59.40980
369.00,59.52798
370.00,59.39659
371.00,59.37878
372.00,59.29564
373.00,59.52283
374.00,59.25503
375.00,59.21589
376.00,59.17581
377.00,58.95092
378.00,58.73847
379.00,58.54492
380.00,58.48420
381.00,58.36912
382.00,58.30095
383.00,58.13983
384.00,57.92651
385.00,57.72914
386.00,57.60087
387.00,57.52497
388.00,57.61809
389.00,57.34941
390.00,57.45029
391.00,57.45697
392.00,57.23678
393.00,57.44495
394.00,57.49872
395.00,57.56217
396.00,57.42316
397.00,57.80936
398.00,57.68826
399.00,57.80196
400.00,58.24240
401.00,58.20011
402.00,58.50904
403.00,58.47471
404.00,58.81106
405.00,58.95784
406.00,58.97419
407.00,59.19108
408.00,59.32369
409.00,59.48366
410.00,59.53262
411.00,59.73568
412.00,60.07202
413.00,60.23661
414.00,60.10644
415.00,60.25204
416.00,60.23947
417.00,60.37936
418.00,60.27384
419.00,60.34782
420.00,60.41623
421.00,60.36828
422.00,60.28768
423.00,60.37645
424.00,60.22401
425.00,60.25450
426.00,60.10998
427.00,59.94690
428.00,59.86975
429.00,59.95627
430.00,59.72216
431.00,59.63058
432.00,59.51187
433.00,59.35532
434.00,59.25816
435.00,59.07483
436.00,59.13382
437.00,58.94703
438.00,58.79475
439.00,58.74240
440.00,58.69533
441.00,58.48969
442.00,58.50669
443.00,58.54850
444.00,58.49584
445.00,58.41943
446.00,58.51562
447.00,58.44520
448.00,58.39279
449.00,58.54713
450.00,58.29798
451.00,58.41594
452.00,58.54039
453.00,58.58538
454.00,58.66266
455.00,58.69042
456.00,58.80316
457.00,58.94638
458.00,59.01058
459.00,59.13002
460.00,59.24772
461.00,59.31383
462.00,59.51335
463.00,59.67310
464.00,59.82975
465.00,59.85519
466.00,59.97934
467.00,60.02110
468.00,60.18318
469.00,60.39158
470.00,60.52616
471.00,60.58478
472.00,60.61654
473.00,60.71209
474.00,60.93273
475.00,60.95228
476.00,61.00416
477.00,61.10554
478.00,61.18014
479.00,61.14315
480.00,61.29760
481.00,61.27945
482.00,61.35690
483.00,61.53010
484.00,61.37297
485.00,61.48401
486.00,61.37207
487.00,61.39761
488.00,61.43177
489.00,61.38021
490.00,61.33755
491.00,61.25098
492.00,61.24319
493.00,61.22798
494.00,61.06817
495.00,61.08063
496.00,60.98078
497.00,60.93068
498.00,60.82845
499.00,60.71903
500.00,60.63797
501.00,60.56964
502.00,60.56040
503.00,60.51438
504.00,60.52729
505.00,60.34924
506.00,60.19816
507.00,60.10404
508.00,60.19254
509.00,59.98611
510.00,59.97493
511.00,59.97196
512.00,59.94228
513.00,59.86631
514.00,59.73393
515.00,59.70234
516.00,59.71433
517.00,59.50962
518.00,59.58940
519.00,59.56973
520.00,59.64480
521.00,59.60553
522.00,59.50238
523.00,59.48142
524.00,59.49748
525.00,59.49029
526.00,59.63385
527.00,59.55310
528.00,59.52324
529.00,59.68261
530.00,59.59353
531.00,59.66840
532.00,59.70177
533.00,59.76742
534.00,59.83137
535.00,59.80574
536.00,59.93484
537.00,60.01776
538.00,60.15920
539.00,60.17401
540.00,60.24451
541.00,60.35576
542.00,60.40471
543.00,60.56395
544.00,60.59511
545.00,60.66298
546.00,60.74607
547.00,60.80970
548.00,60.93094
549.00,61.00784
550.00,61.00807
551.00,61.23232
552.00,61.31139
553.00,61.49289
554.00,61.58212
555.00,61.56307
556.00,61.65006
557.00,61.77779
558.00,61.78606
559.00,61.88585
560.00,61.86367
561.00,62.15019
562.00,62.07992
563.00,62.17860
564.00,62.10844
565.00,62.21065
566.00,62.39825
567.00,62.38885
568.00,62.53072
569.00,62.38322
570.00,62.54929
571.00,62.51923
572.00,62.60962
573.00,62.56304
574.00,62.64672
575.00,62.68887
576.00,62.67323
577.00,62.68609
578.00,62.75666
579.00,62.79812
580.00,62.75791
581.00,62.75116
582.00,62.75426
583.00,62.71017
584.00,62.70278
585.00,62.69307
586.00,62.71805
587.00,62.78126
588.00,62.54783
589.00,62.52399
590.00,62.56557
591.00,62.55051
592.00,62.55559
593.00,62.42750
594.00,62.51389
595.00,62.32026
596.00,62.38223
597.00,62.27400
598.00,62.23089
599.00,62.10819
600.00,62.17855
601.00,62.07691
602.00,62.07941
603.00,61.95270
604.00,61.84588
605.00,61.85053
606.00,61.84426
607.00,61.73492
608.00,61.70117
609.00,61.68653
610.00,61.65419
611.00,61.65062
612.00,61.54460
613.00,61.56624
614.00,61.46891
615.00,61.51427
616.00,61.44285
617.00,61.39321
618.00,61.36595
619.00,61.20923
620.00,61.33993
621.00,61.28338
622.00,61.30385
623.00,61.13526
624.00,61.17687
625.00,61.14141
626.00,61.18259
627.00,61.20195
628.00,61.06974
629.00,61.13953
630.00,61.09233
631.00,61.00566
632.00,60.97220
633.00,61.04811
634.00,61.07712
635.00,61.06601
636.00,61.03393
637.00,61.02799
638.00,61.04234
639.00,61.02495
640.00,61.00177
641.00,61.12715
642.00,61.04433
643.00,61.05118
644.00,61.30369
645.00,61.25867
646.00,61.25869
647.00,61.26458
648.00,61.21653
649.00,61.36153
650.00,61.37182
651.00,61.39325
652.00,61.33282
653.00,61.47099
654.00,61.55100
655.00,61.60374
656.00,61.61388
657.00,61.59720
658.00,61.75255
659.00,61.84942
660.00,61.78831
661.00,61.84617
662.00,61.92368
663.00,62.16826
664.00,62.02745
665.00,62.07060
666.00,62.14116
667.00,62.27092
668.00,62.26357
669.00,62.33417
670.00,62.48643
671.00,62.48940
672.00,62.52495
673.00,62.52980
674.00,62.69554
675.00,62.77035
676.00,62.78054
677.00,62.85313
678.00,62.91896
679.00,62.98761
680.00,62.89689
681.00,63.08347
682.00,63.27428
683.00,63.08970
684.00,63.31810
685.00,63.44066
686.00,63.33631
687.00,63.24363
688.00,63.54586
689.00,63.43490
690.00,63.65024
691.00,63.60235
692.00,63.89018
693.00,63.96577
694.00,63.85165
695.00,63.99388
696.00,63.94020
697.00,63.89831
698.00,64.10936
699.00,64.27978
700.00,63.87389
701.00,64.25907
702.00,64.17951
703.00,64.11425
704.00,64.26471
705.00,64.19250
706.00,64.38550
707.00,64.38162
708.00,64.35137
709.00,64.47114
710.00,64.47433
711.00,64.53187
712.00,64.45380
713.00,64.60649
714.00,64.47505
715.00,64.71912
716.00,64.73883
717.00,64.51290
718.00,64.80571
719.00,64.67212
720.00,64.64356
721.00,64.73241
722.00,64.80008
723.00,64.65580
724.00,64.70017
725.00,64.49930
726.00,64.86617
727.00,64.64779
728.00,64.50503
729.00,64.61422
730.00,64.60316
731.00,64.61315
732.00,64.70467
733.00,64.33399
734.00,64.45456
735.00,64.82096
736.00,64.49278
737.00,64.41109
738.00,64.32937
739.00,64.39369
740.00,64.30641
741.00,64.47457
742.00,64.13519
743.00,64.25912
744.00,64.50073
745.00,64.46593
746.00,64.21782
747.00,64.25439
748.00,64.27772
749.00,64.29584
750.00,64.07406
751.00,64.35974
752.00,64.49317
753.00,64.34265
754.00,64.24519
755.00,64.15954
756.00,63.89292
757.00,64.16581
758.00,63.69128
759.00,64.29096
760.00,63.92360
761.00,63.94659
762.00,64.03887
763.00,63.95358
764.00,64.13791
765.00,64.06342
766.00,63.93788
767.00,63.77062
768.00,63.74252
769.00,63.65499
770.00,63.49763
771.00,63.52202
772.00,63.55550
773.00,63.19113
774.00,63.58958
775.00,63.68865
776.00,63.48189
777.00,63.53165
778.00,63.73014
779.00,63.21601
780.00,63.27359
781.00,63.52477
782.00,63.49537
783.00,63.62967
784.00,63.14557
785.00,63.55943
786.00,63.13736
787.00,63.12155
788.00,64.02509
789.00,63.35244
790.00,63.08375
791.00,62.81250
792.00,63.54578
793.00,63.72792
794.00,63.02251
795.00,63.29440
796.00,63.10240
797.00,62.96957
798.00,63.24077
799.00,63.10479
800.00,63.47623
