"Sam8Standard - RawData"
"Wavelength nm.","T%"
190.00,0.99008
191.00,1.45326
192.00,1.13065
193.00,0.80882
194.00,0.32928
195.00,0.69615
196.00,0.54154
197.00,0.46751
198.00,0.52569
199.00,0.17785
200.00,0.18155
201.00,0.49055
202.00,0.14725
203.00,0.20566
204.00,0.19883
205.00,0.04153
206.00,0.27514
207.00,0.41093
208.00,0.29928
209.00,0.27808
210.00,0.23956
211.00,0.18335
212.00,0.24118
213.00,0.14911
214.00,0.20076
215.00,0.19383
216.00,0.23426
217.00,0.17359
218.00,0.15781
219.00,0.24812
220.00,0.34930
221.00,0.26131
222.00,0.31114
223.00,0.26388
224.00,0.32492
225.00,0.36160
226.00,0.37633
227.00,0.43896
228.00,0.45629
229.00,0.50192
230.00,0.67509
231.00,0.71721
232.00,0.84815
233.00,1.10471
234.00,1.16401
235.00,1.40820
236.00,1.68390
237.00,1.92135
238.00,2.20311
239.00,2.60828
240.00,2.98471
241.00,3.35790
242.00,3.99591
243.00,4.62757
244.00,5.32366
245.00,6.24723
246.00,7.16714
247.00,8.35312
248.00,9.56104
249.00,10.97734
250.00,12.73031
251.00,14.81395
252.00,16.87647
253.00,19.57364
254.00,22.28312
255.00,25.23153
256.00,28.61063
257.00,31.23246
258.00,34.43001
259.00,36.76649
260.00,39.44375
261.00,42.10659
262.00,44.09305
263.00,46.21697
264.00,48.24666
265.00,49.90505
266.00,51.57206
267.00,52.91661
268.00,53.97996
269.00,54.70805
270.00,55.17126
271.00,55.39773
272.00,55.76563
273.00,55.82712
274.00,55.48522
275.00,55.68750
276.00,55.11841
277.00,54.84668
278.00,54.84105
279.00,54.65525
280.00,54.48599
281.00,54.87899
282.00,54.63396
283.00,54.67284
284.00,55.06214
285.00,55.74010
286.00,56.33785
287.00,56.12989
288.00,56.98839
289.00,57.42000
290.00,58.11332
291.00,58.20419
292.00,58.83597
293.00,59.27083
294.00,59.57140
295.00,59.47206
296.00,60.11511
297.00,60.05920
298.00,60.15923
299.00,59.89903
300.00,59.96056
301.00,60.08697
302.00,59.98160
303.00,59.91176
304.00,59.32779
305.00,59.06665
306.00,59.19508
307.00,58.55812
308.00,58.78072
309.00,58.46683
310.00,58.13099
311.00,57.74008
312.00,58.18503
313.00,57.47823
314.00,57.78121
315.00,57.73874
316.00,58.10272
317.00,58.05776
318.00,57.96875
319.00,58.01043
320.00,58.52615
321.00,58.19153
322.00,58.86796
323.00,58.92490
324.00,59.46167
325.00,59.46665
326.00,60.08199
327.00,60.09924
328.00,60.08078
329.00,60.31777
330.00,60.54137
331.00,60.79441
332.00,61.07364
333.00,61.26077
334.00,61.55835
335.00,61.48593
336.00,61.63632
337.00,61.89098
338.00,61.54512
339.00,62.15733
340.00,61.77233
341.00,61.66738
342.00,61.55654
343.00,61.50289
344.00,61.35663
345.00,61.32100
346.00,61.01490
347.00,61.12041
348.00,60.94764
349.00,60.75922
350.00,60.72542
351.00,60.28692
352.00,60.00271
353.00,59.82555
354.00,59.83171
355.00,59.71479
356.00,59.52508
357.00,59.39248
358.00,59.20324
359.00,59.35798
360.00,59.12386
361.00,58.77027
362.00,59.10143
363.00,59.34805
364.00,58.97636
365.00,59.12237
366.00,59.13070
367.00,59.15430
368.00,59.12760
369.00,59.24259
370.00,59.59745
371.00,59.63844
372.00,59.94845
373.00,59.76513
374.00,60.03464
375.00,59.92599
376.00,60.31553
377.00,60.49621
378.00,60.63474
379.00,60.62894
380.00,60.87024
381.00,61.22204
382.00,61.22755
383.00,61.61493
384.00,61.63384
385.00,61.75616
386.00,61.83560
387.00,61.91202
388.00,62.04013
389.00,62.16284
390.00,62.44560
391.00,62.38205
392.00,62.56827
393.00,62.61122
394.00,62.53592
395.00,62.75647
396.00,62.73203
397.00,62.86269
398.00,62.76214
399.00,62.91346
400.00,62.71362
401.00,62.86231
402.00,62.65483
403.00,62.73792
404.00,62.53240
405.00,62.58764
406.00,62.54194
407.00,62.58839
408.00,62.39344
409.00,62.26788
410.00,62.21592
411.00,61.99873
412.00,61.99589
413.00,61.87541
414.00,61.82725
415.00,61.63101
416.00,61.62025
417.00,61.48503
418.00,61.41245
419.00,61.28196
420.00,61.17822
421.00,61.15825
422.00,60.83440
423.00,60.97142
424.00,60.90921
425.00,60.70630
426.00,60.71109
427.00,60.51168
428.00,60.61606
429.00,60.64274
430.00,60.34178
431.00,60.35797
432.00,60.46900
433.00,60.30962
434.00,60.36565
435.00,60.36864
436.00,60.27954
437.00,60.41941
438.00,60.24809
439.00,60.32274
440.00,60.39783
441.00,60.43351
442.00,60.52433
443.00,60.51042
444.00,60.63543
445.00,60.64372
446.00,60.65877
447.00,60.69084
448.00,60.67479
449.00,60.87229
450.00,60.91744
451.00,61.04492
452.00,61.24229
453.00,61.34166
454.00,61.29411
455.00,61.32115
456.00,61.53222
457.00,61.78071
458.00,61.69874
459.00,61.73336
460.00,61.92027
461.00,61.92064
462.00,62.15982
463.00,62.25712
464.00,62.36621
465.00,62.51560
466.00,62.45856
467.00,62.73707
468.00,62.73185
469.00,62.81842
470.00,62.82172
471.00,63.00467
472.00,63.10713
473.00,63.27395
474.00,63.17049
475.00,63.34979
476.00,63.40054
477.00,63.45950
478.00,63.61594
479.00,63.59127
480.00,63.55712
481.00,63.72988
482.00,63.84950
483.00,63.82805
484.00,63.89185
485.00,63.75105
486.00,63.92381
487.00,63.87574
488.00,64.00124
489.00,63.96582
490.00,63.92411
491.00,63.95020
492.00,64.03267
493.00,63.95480
494.00,63.97300
495.00,63.93445
496.00,63.95955
497.00,64.00459
498.00,64.10005
499.00,63.83730
500.00,63.85610
501.00,63.77680
502.00,63.68649
503.00,63.79853
504.00,63.71443
505.00,63.71244
506.00,63.65518
507.00,63.53322
508.00,63.56774
509.00,63.42691
510.00,63.38251
511.00,63.33268
512.00,63.26668
513.00,63.23695
514.00,63.23946
515.00,63.15987
516.00,63.11271
517.00,63.02825
518.00,62.87537
519.00,62.85903
520.00,62.76238
521.00,62.84291
522.00,62.69979
523.00,62.61752
524.00,62.68261
525.00,62.57460
526.00,62.48996
527.00,62.48251
528.00,62.45702
529.00,62.38273
530.00,62.31435
531.00,62.23759
532.00,62.31073
533.00,62.24468
534.00,62.22456
535.00,62.11312
536.00,62.04352
537.00,61.97461
538.00,62.10065
539.00,62.07641
540.00,61.88446
541.00,61.94463
542.00,61.89691
543.00,61.91766
544.00,61.85040
545.00,61.87459
546.00,61.92040
547.00,61.93235
548.00,61.84240
549.00,61.86872
550.00,61.89616
551.00,61.88183
552.00,61.81836
553.00,61.96163
554.00,61.89933
555.00,61.82256
556.00,61.96571
557.00,62.02518
558.00,61.88077
559.00,61.96734
560.00,61.98575
561.00,61.97701
562.00,62.15215
563.00,62.01989
564.00,62.09158
565.00,62.12503
566.00,62.20686
567.00,62.21866
568.00,62.22069
569.00,62.25375
570.00,62.33773
571.00,62.35675
572.00,62.47187
573.00,62.43242
574.00,62.59287
575.00,62.56645
576.00,62.60702
577.00,62.53452
578.00,62.69457
579.00,62.65613
580.00,62.89077
581.00,62.88338
582.00,62.96552
583.00,62.98066
584.00,63.05813
585.00,63.07552
586.00,63.07135
587.00,63.23859
588.00,63.33688
589.00,63.27003
590.00,63.43632
591.00,63.44475
592.00,63.53878
593.00,63.64280
594.00,63.58037
595.00,63.70644
596.00,63.84652
597.00,63.90126
598.00,63.84710
599.00,64.03515
600.00,64.12765
601.00,64.15359
602.00,64.11051
603.00,64.15879
604.00,64.30508
605.00,64.41785
606.00,64.37050
607.00,64.57355
608.00,64.50288
609.00,64.54753
610.00,64.68277
611.00,64.61967
612.00,64.65290
613.00,64.81784
614.00,64.92115
615.00,64.90747
616.00,64.83011
617.00,64.97101
618.00,65.07026
619.00,65.04264
620.00,65.17671
621.00,65.30453
622.00,65.07516
623.00,65.37883
624.00,65.23964
625.00,65.31264
626.00,65.45790
627.00,65.28980
628.00,65.42584
629.00,65.53944
630.00,65.42217
631.00,65.63795
632.00,65.52882
633.00,65.67806
634.00,65.72714
635.00,65.60926
636.00,65.59906
637.00,65.70110
638.00,65.73792
639.00,65.55008
640.00,65.83838
641.00,65.89848
642.00,65.86901
643.00,65.75558
644.00,65.88230
645.00,65.87889
646.00,65.86919
647.00,65.76554
648.00,65.91165
649.00,65.90571
650.00,65.89226
651.00,65.85827
652.00,65.90469
653.00,65.81401
654.00,65.78598
655.00,65.89543
656.00,65.92491
657.00,66.09766
658.00,65.88827
659.00,65.89380
660.00,65.82378
661.00,65.82243
662.00,65.92256
663.00,65.72520
664.00,65.77914
665.00,65.76039
666.00,65.87402
667.00,65.88421
668.00,65.82477
669.00,65.78249
670.00,65.85667
671.00,65.69497
672.00,65.85422
673.00,65.73445
674.00,65.82909
675.00,65.68524
676.00,65.81010
677.00,65.77860
678.00,65.58276
679.00,65.52704
680.00,65.51192
681.00,65.48810
682.00,65.44544
683.00,65.54325
684.00,65.29754
685.00,65.50131
686.00,65.35705
687.00,65.39556
688.00,65.34422
689.00,65.45524
690.00,65.41197
691.00,65.13134
692.00,65.44487
693.00,65.21290
694.00,65.29333
695.00,65.29194
696.00,64.95769
697.00,65.22487
698.00,64.89701
699.00,65.13580
700.00,64.97132
701.00,65.06571
702.00,64.85636
703.00,64.98472
704.00,65.03277
705.00,64.82816
706.00,64.94329
707.00,65.20662
708.00,65.04642
709.00,64.86152
710.00,64.75237
711.00,64.87308
712.00,64.67258
713.00,64.78833
714.00,64.72830
715.00,64.82012
716.00,64.77673
717.00,64.75211
718.00,64.75973
719.00,64.50236
720.00,64.88571
721.00,64.47218
722.00,64.80177
723.00,64.49866
724.00,64.49436
725.00,64.64581
726.00,64.77402
727.00,64.87665
728.00,64.47632
729.00,65.00953
730.00,64.43326
731.00,64.33062
732.00,64.53226
733.00,64.42956
734.00,64.29819
735.00,64.45732
736.00,64.47957
737.00,64.50518
738.00,64.40651
739.00,64.82837
740.00,64.36478
741.00,64.28735
742.00,64.22434
743.00,64.34826
744.00,64.20025
745.00,64.38128
746.00,64.33846
747.00,64.16965
748.00,64.39251
749.00,64.43923
750.00,64.55538
751.00,64.44170
752.00,64.31452
753.00,64.52577
754.00,64.69500
755.00,64.67319
756.00,64.39065
757.00,64.44454
758.00,64.54446
759.00,64.19985
760.00,64.41757
761.00,64.26756
762.00,64.43740
763.00,64.15178
764.00,64.69194
765.00,64.34971
766.00,64.53625
767.00,64.18764
768.00,64.42822
769.00,64.22967
770.00,64.60164
771.00,64.26083
772.00,64.54816
773.00,64.78754
774.00,64.45753
775.00,64.49665
776.00,64.85752
777.00,64.80399
778.00,64.55177
779.00,64.41212
780.00,64.71415
781.00,65.02162
782.00,64.58689
783.00,64.45737
784.00,65.30257
785.00,64.90741
786.00,65.10736
787.00,64.71456
788.00,65.00546
789.00,64.75057
790.00,64.71620
791.00,64.67516
792.00,64.76185
793.00,64.81639
794.00,64.91188
795.00,65.36181
796.00,64.99129
797.00,65.11820
798.00,64.94796
799.00,65.03114
800.00,65.61607
